File: Fig 4/Fig 3b CV surface light/CV_surface_light_3.csv
Sept. 26, 2024   14:49:12
Cyclic Voltammetry
File: c:\users\secm\desktop\data\lmxlm2\+12 2319-1\26-09-2024 - lamp inside cage\region 2\+12 2319-1 fto cv_cells_light_surface_20_3.csv
Data Source:  Experiment
Instrument Model:  CHI920C
Ref. Electrode:
Header:
Note:

Init E (V) = -0.5
High E (V) = 0.5
Low E (V) = -0.5
Init P/N = P
Scan Rate (V/s) = 0.05
Segment = 2
Sample Interval (V) = 0.001
Quiet Time (sec) = 10
Sensitivity (A/V) = 1e-7

Results:

Channel 1:
Segment 1:
Ep = 0.137V
ip = 1.701e-9A
Ah = 2.529e-9C

Segment 2:

Potential/V, Current/A

-0.500, -2.173e-9
-0.493, -1.849e-9
-0.486, -1.700e-9
-0.479, -1.588e-9
-0.472, -1.485e-9
-0.465, -1.394e-9
-0.458, -1.314e-9
-0.451, -1.236e-9
-0.444, -1.164e-9
-0.437, -1.097e-9
-0.430, -1.036e-9
-0.423, -9.669e-10
-0.416, -9.101e-10
-0.409, -8.527e-10
-0.402, -8.006e-10
-0.395, -7.449e-10
-0.388, -6.909e-10
-0.381, -6.396e-10
-0.374, -5.923e-10
-0.367, -5.419e-10
-0.360, -4.880e-10
-0.353, -4.406e-10
-0.346, -3.926e-10
-0.339, -3.487e-10
-0.332, -3.087e-10
-0.325, -2.576e-10
-0.318, -2.117e-10
-0.311, -1.670e-10
-0.304, -1.242e-10
-0.297, -8.380e-11
-0.290, -3.983e-11
-0.283, 5.498e-12
-0.276, 4.615e-11
-0.269, 8.738e-11
-0.262, 1.269e-10
-0.255, 1.617e-10
-0.248, 2.007e-10
-0.241, 2.439e-10
-0.234, 2.832e-10
-0.227, 3.183e-10
-0.220, 3.573e-10
-0.213, 3.936e-10
-0.206, 4.313e-10
-0.199, 4.738e-10
-0.192, 5.150e-10
-0.185, 5.518e-10
-0.178, 5.909e-10
-0.171, 6.268e-10
-0.164, 6.623e-10
-0.157, 7.005e-10
-0.150, 7.375e-10
-0.143, 7.754e-10
-0.136, 8.114e-10
-0.129, 8.500e-10
-0.122, 8.917e-10
-0.115, 9.298e-10
-0.108, 9.712e-10
-0.101, 1.016e-9
-0.094, 1.055e-9
-0.087, 1.098e-9
-0.080, 1.139e-9
-0.073, 1.186e-9
-0.066, 1.236e-9
-0.059, 1.283e-9
-0.052, 1.338e-9
-0.045, 1.392e-9
-0.038, 1.449e-9
-0.031, 1.508e-9
-0.024, 1.565e-9
-0.017, 1.630e-9
-0.010, 1.699e-9
-0.003, 1.767e-9
0.004, 1.842e-9
0.011, 1.922e-9
0.018, 2.005e-9
0.025, 2.089e-9
0.032, 2.180e-9
0.039, 2.276e-9
0.046, 2.384e-9
0.053, 2.494e-9
0.060, 2.612e-9
0.067, 2.751e-9
0.074, 2.893e-9
0.081, 3.047e-9
0.088, 3.214e-9
0.095, 3.379e-9
0.102, 3.555e-9
0.109, 3.723e-9
0.116, 3.872e-9
0.123, 3.993e-9
0.130, 4.075e-9
0.137, 4.115e-9
0.144, 4.080e-9
0.151, 4.015e-9
0.158, 3.958e-9
0.165, 3.924e-9
0.172, 3.913e-9
0.179, 3.915e-9
0.186, 3.932e-9
0.193, 3.955e-9
0.200, 3.986e-9
0.207, 4.018e-9
0.214, 4.055e-9
0.221, 4.092e-9
0.228, 4.139e-9
0.235, 4.182e-9
0.242, 4.226e-9
0.249, 4.269e-9
0.256, 4.310e-9
0.263, 4.354e-9
0.270, 4.402e-9
0.277, 4.446e-9
0.284, 4.491e-9
0.291, 4.538e-9
0.298, 4.578e-9
0.305, 4.628e-9
0.312, 4.672e-9
0.319, 4.716e-9
0.326, 4.759e-9
0.333, 4.798e-9
0.340, 4.841e-9
0.347, 4.878e-9
0.354, 4.916e-9
0.361, 4.952e-9
0.368, 4.986e-9
0.375, 5.019e-9
0.382, 5.049e-9
0.389, 5.082e-9
0.396, 5.113e-9
0.403, 5.142e-9
0.410, 5.151e-9
0.417, 5.189e-9
0.424, 5.218e-9
0.431, 5.245e-9
0.438, 5.270e-9
0.445, 5.292e-9
0.452, 5.323e-9
0.459, 5.352e-9
0.466, 5.380e-9
0.473, 5.407e-9
0.480, 5.439e-9
0.487, 5.468e-9
0.494, 5.505e-9
0.499, 5.086e-9
0.492, 4.230e-9
0.485, 3.814e-9
0.478, 3.518e-9
0.471, 3.287e-9
0.464, 3.087e-9
0.457, 2.923e-9
0.450, 2.775e-9
0.443, 2.627e-9
0.436, 2.506e-9
0.429, 2.386e-9
0.422, 2.271e-9
0.415, 2.160e-9
0.408, 2.064e-9
0.401, 1.959e-9
0.394, 1.860e-9
0.387, 1.762e-9
0.380, 1.669e-9
0.373, 1.580e-9
0.366, 1.492e-9
0.359, 1.408e-9
0.352, 1.323e-9
0.345, 1.244e-9
0.338, 1.161e-9
0.331, 1.090e-9
0.324, 1.019e-9
0.317, 9.500e-10
0.310, 8.778e-10
0.303, 8.072e-10
0.296, 7.432e-10
0.289, 6.790e-10
0.282, 6.203e-10
0.275, 5.609e-10
0.268, 5.017e-10
0.261, 4.356e-10
0.254, 3.821e-10
0.247, 3.268e-10
0.240, 2.743e-10
0.233, 2.186e-10
0.226, 1.654e-10
0.219, 1.177e-10
0.212, 6.720e-11
0.205, 1.837e-11
0.198, -3.837e-11
0.191, -9.023e-11
0.184, -1.429e-10
0.177, -1.938e-10
0.170, -2.480e-10
0.163, -3.039e-10
0.156, -3.542e-10
0.149, -4.086e-10
0.142, -4.632e-10
0.135, -5.240e-10
0.128, -5.813e-10
0.121, -6.376e-10
0.114, -6.966e-10
0.107, -7.545e-10
0.100, -8.163e-10
0.093, -8.735e-10
0.086, -9.346e-10
0.079, -9.980e-10
0.072, -1.061e-9
0.065, -1.121e-9
0.058, -1.182e-9
0.051, -1.246e-9
0.044, -1.309e-9
0.037, -1.365e-9
0.030, -1.425e-9
0.023, -1.488e-9
0.016, -1.547e-9
0.009, -1.600e-9
0.002, -1.656e-9
-0.005, -1.707e-9
-0.012, -1.765e-9
-0.019, -1.814e-9
-0.026, -1.867e-9
-0.033, -1.917e-9
-0.040, -1.964e-9
-0.047, -2.011e-9
-0.054, -2.056e-9
-0.061, -2.100e-9
-0.068, -2.142e-9
-0.075, -2.178e-9
-0.082, -2.219e-9
-0.089, -2.258e-9
-0.096, -2.293e-9
-0.103, -2.333e-9
-0.110, -2.364e-9
-0.117, -2.394e-9
-0.124, -2.424e-9
-0.131, -2.452e-9
-0.138, -2.482e-9
-0.145, -2.510e-9
-0.152, -2.535e-9
-0.159, -2.558e-9
-0.166, -2.582e-9
-0.173, -2.607e-9
-0.180, -2.631e-9
-0.187, -2.653e-9
-0.194, -2.674e-9
-0.201, -2.699e-9
-0.208, -2.723e-9
-0.215, -2.748e-9
-0.222, -2.770e-9
-0.229, -2.795e-9
-0.236, -2.820e-9
-0.243, -2.846e-9
-0.250, -2.874e-9
-0.257, -2.895e-9
-0.264, -2.921e-9
-0.271, -2.948e-9
-0.278, -2.976e-9
-0.285, -3.002e-9
-0.292, -3.030e-9
-0.299, -3.060e-9
-0.306, -3.089e-9
-0.313, -3.120e-9
-0.320, -3.148e-9
-0.327, -3.187e-9
-0.334, -3.208e-9
-0.341, -3.240e-9
-0.348, -3.269e-9
-0.355, -3.300e-9
-0.362, -3.336e-9
-0.369, -3.369e-9
-0.376, -3.399e-9
-0.383, -3.437e-9
-0.390, -3.468e-9
-0.397, -3.498e-9
-0.404, -3.529e-9
-0.411, -3.566e-9
-0.418, -3.602e-9
-0.425, -3.641e-9
-0.432, -3.682e-9
-0.439, -3.721e-9
-0.446, -3.754e-9
-0.453, -3.791e-9
-0.460, -3.833e-9
-0.467, -3.874e-9
-0.474, -3.914e-9
-0.481, -3.961e-9
-0.488, -4.001e-9
-0.495, -4.046e-9
-0.499, -4.072e-9