File: Fig 4/Fig 3b CV surface light/CV_surface_light_2.csv
Sept. 26, 2024   14:48:05
Cyclic Voltammetry
File: c:\users\secm\desktop\data\lmxlm2\+12 2319-1\26-09-2024 - lamp inside cage\region 2\+12 2319-1 fto cv_cells_light_surface_20_2.csv
Data Source:  Experiment
Instrument Model:  CHI920C
Ref. Electrode:
Header:
Note:

Init E (V) = -0.5
High E (V) = 0.5
Low E (V) = -0.5
Init P/N = P
Scan Rate (V/s) = 0.05
Segment = 2
Sample Interval (V) = 0.001
Quiet Time (sec) = 10
Sensitivity (A/V) = 1e-7

Results:

Channel 1:
Segment 1:

Segment 2:

Potential/V, Current/A

-0.500, -2.504e-9
-0.493, -2.171e-9
-0.486, -2.019e-9
-0.479, -1.896e-9
-0.472, -1.789e-9
-0.465, -1.692e-9
-0.458, -1.615e-9
-0.451, -1.540e-9
-0.444, -1.461e-9
-0.437, -1.391e-9
-0.430, -1.326e-9
-0.423, -1.264e-9
-0.416, -1.199e-9
-0.409, -1.139e-9
-0.402, -1.086e-9
-0.395, -1.028e-9
-0.388, -9.680e-10
-0.381, -9.169e-10
-0.374, -8.651e-10
-0.367, -8.171e-10
-0.360, -7.680e-10
-0.353, -7.184e-10
-0.346, -6.702e-10
-0.339, -6.216e-10
-0.332, -5.777e-10
-0.325, -5.327e-10
-0.318, -4.805e-10
-0.311, -4.363e-10
-0.304, -3.902e-10
-0.297, -3.481e-10
-0.290, -3.097e-10
-0.283, -2.628e-10
-0.276, -2.156e-10
-0.269, -1.763e-10
-0.262, -1.349e-10
-0.255, -9.647e-11
-0.248, -5.562e-11
-0.241, -1.020e-11
-0.234, 3.387e-11
-0.227, 7.023e-11
-0.220, 1.139e-10
-0.213, 1.511e-10
-0.206, 1.879e-10
-0.199, 2.316e-10
-0.192, 2.693e-10
-0.185, 3.103e-10
-0.178, 3.487e-10
-0.171, 3.879e-10
-0.164, 4.253e-10
-0.157, 4.711e-10
-0.150, 5.162e-10
-0.143, 5.570e-10
-0.136, 5.964e-10
-0.129, 6.392e-10
-0.122, 6.813e-10
-0.115, 7.241e-10
-0.108, 7.673e-10
-0.101, 8.132e-10
-0.094, 8.577e-10
-0.087, 9.046e-10
-0.080, 9.528e-10
-0.073, 1.002e-9
-0.066, 1.050e-9
-0.059, 1.102e-9
-0.052, 1.151e-9
-0.045, 1.207e-9
-0.038, 1.264e-9
-0.031, 1.325e-9
-0.024, 1.386e-9
-0.017, 1.454e-9
-0.010, 1.520e-9
-0.003, 1.590e-9
0.004, 1.659e-9
0.011, 1.739e-9
0.018, 1.819e-9
0.025, 1.906e-9
0.032, 1.992e-9
0.039, 2.082e-9
0.046, 2.182e-9
0.053, 2.285e-9
0.060, 2.400e-9
0.067, 2.521e-9
0.074, 2.647e-9
0.081, 2.791e-9
0.088, 2.930e-9
0.095, 3.075e-9
0.102, 3.227e-9
0.109, 3.364e-9
0.116, 3.490e-9
0.123, 3.588e-9
0.130, 3.663e-9
0.137, 3.704e-9
0.144, 3.709e-9
0.151, 3.698e-9
0.158, 3.688e-9
0.165, 3.686e-9
0.172, 3.691e-9
0.179, 3.706e-9
0.186, 3.730e-9
0.193, 3.756e-9
0.200, 3.786e-9
0.207, 3.819e-9
0.214, 3.858e-9
0.221, 3.896e-9
0.228, 3.936e-9
0.235, 3.978e-9
0.242, 4.019e-9
0.249, 4.059e-9
0.256, 4.098e-9
0.263, 4.147e-9
0.270, 4.192e-9
0.277, 4.236e-9
0.284, 4.279e-9
0.291, 4.319e-9
0.298, 4.364e-9
0.305, 4.410e-9
0.312, 4.454e-9
0.319, 4.498e-9
0.326, 4.540e-9
0.333, 4.576e-9
0.340, 4.622e-9
0.347, 4.658e-9
0.354, 4.695e-9
0.361, 4.732e-9
0.368, 4.765e-9
0.375, 4.794e-9
0.382, 4.825e-9
0.389, 4.859e-9
0.396, 4.885e-9
0.403, 4.910e-9
0.410, 4.919e-9
0.417, 4.955e-9
0.424, 4.984e-9
0.431, 5.011e-9
0.438, 5.033e-9
0.445, 5.055e-9
0.452, 5.084e-9
0.459, 5.110e-9
0.466, 5.135e-9
0.473, 5.164e-9
0.480, 5.193e-9
0.487, 5.223e-9
0.494, 5.255e-9
0.499, 4.851e-9
0.492, 4.020e-9
0.485, 3.610e-9
0.478, 3.320e-9
0.471, 3.088e-9
0.464, 2.902e-9
0.457, 2.737e-9
0.450, 2.584e-9
0.443, 2.451e-9
0.436, 2.324e-9
0.429, 2.206e-9
0.422, 2.096e-9
0.415, 1.988e-9
0.408, 1.893e-9
0.401, 1.785e-9
0.394, 1.689e-9
0.387, 1.595e-9
0.380, 1.507e-9
0.373, 1.421e-9
0.366, 1.334e-9
0.359, 1.251e-9
0.352, 1.168e-9
0.345, 1.094e-9
0.338, 1.020e-9
0.331, 9.510e-10
0.324, 8.760e-10
0.317, 8.069e-10
0.310, 7.424e-10
0.303, 6.741e-10
0.296, 6.137e-10
0.289, 5.549e-10
0.282, 4.930e-10
0.275, 4.279e-10
0.268, 3.737e-10
0.261, 3.222e-10
0.254, 2.680e-10
0.247, 2.130e-10
0.240, 1.608e-10
0.233, 1.147e-10
0.226, 6.408e-11
0.219, 1.310e-11
0.212, -4.217e-11
0.205, -8.935e-11
0.198, -1.409e-10
0.191, -1.895e-10
0.184, -2.425e-10
0.177, -2.957e-10
0.170, -3.472e-10
0.163, -3.973e-10
0.156, -4.504e-10
0.149, -5.058e-10
0.142, -5.658e-10
0.135, -6.208e-10
0.128, -6.749e-10
0.121, -7.313e-10
0.114, -7.927e-10
0.107, -8.460e-10
0.100, -9.089e-10
0.093, -9.657e-10
0.086, -1.031e-9
0.079, -1.093e-9
0.072, -1.154e-9
0.065, -1.215e-9
0.058, -1.279e-9
0.051, -1.335e-9
0.044, -1.396e-9
0.037, -1.456e-9
0.030, -1.521e-9
0.023, -1.577e-9
0.016, -1.633e-9
0.009, -1.687e-9
0.002, -1.746e-9
-0.005, -1.797e-9
-0.012, -1.853e-9
-0.019, -1.906e-9
-0.026, -1.956e-9
-0.033, -2.008e-9
-0.040, -2.056e-9
-0.047, -2.104e-9
-0.054, -2.149e-9
-0.061, -2.191e-9
-0.068, -2.239e-9
-0.075, -2.280e-9
-0.082, -2.318e-9
-0.089, -2.360e-9
-0.096, -2.394e-9
-0.103, -2.435e-9
-0.110, -2.468e-9
-0.117, -2.502e-9
-0.124, -2.532e-9
-0.131, -2.561e-9
-0.138, -2.592e-9
-0.145, -2.618e-9
-0.152, -2.645e-9
-0.159, -2.672e-9
-0.166, -2.696e-9
-0.173, -2.724e-9
-0.180, -2.748e-9
-0.187, -2.770e-9
-0.194, -2.794e-9
-0.201, -2.820e-9
-0.208, -2.843e-9
-0.215, -2.869e-9
-0.222, -2.893e-9
-0.229, -2.915e-9
-0.236, -2.940e-9
-0.243, -2.966e-9
-0.250, -2.992e-9
-0.257, -3.017e-9
-0.264, -3.044e-9
-0.271, -3.070e-9
-0.278, -3.096e-9
-0.285, -3.124e-9
-0.292, -3.150e-9
-0.299, -3.179e-9
-0.306, -3.210e-9
-0.313, -3.243e-9
-0.320, -3.269e-9
-0.327, -3.300e-9
-0.334, -3.334e-9
-0.341, -3.366e-9
-0.348, -3.397e-9
-0.355, -3.429e-9
-0.362, -3.462e-9
-0.369, -3.493e-9
-0.376, -3.524e-9
-0.383, -3.557e-9
-0.390, -3.591e-9
-0.397, -3.630e-9
-0.404, -3.668e-9
-0.411, -3.711e-9
-0.418, -3.746e-9
-0.425, -3.780e-9
-0.432, -3.819e-9
-0.439, -3.859e-9
-0.446, -3.901e-9
-0.453, -3.945e-9
-0.460, -3.987e-9
-0.467, -4.027e-9
-0.474, -4.073e-9
-0.481, -4.120e-9
-0.488, -4.168e-9
-0.495, -4.217e-9
-0.499, -4.242e-9