File: Fig 4/Fig 3b CV surface light/CV_surface_light_7.csv
Sept. 26, 2024   14:53:40
Cyclic Voltammetry
File: c:\users\secm\desktop\data\lmxlm2\+12 2319-1\26-09-2024 - lamp inside cage\region 2\+12 2319-1 fto cv_cells_light_surface_20_7.csv
Data Source:  Experiment
Instrument Model:  CHI920C
Ref. Electrode:
Header:
Note:

Init E (V) = -0.5
High E (V) = 0.5
Low E (V) = -0.5
Init P/N = P
Scan Rate (V/s) = 0.05
Segment = 2
Sample Interval (V) = 0.001
Quiet Time (sec) = 10
Sensitivity (A/V) = 1e-7

Results:

Channel 1:
Segment 1:
Ep = 0.134V
ip = 7.832e-9A
Ah = 4.800e-9C

Segment 2:

Potential/V, Current/A

-0.500, -1.869e-9
-0.493, -1.550e-9
-0.486, -1.407e-9
-0.479, -1.296e-9
-0.472, -1.196e-9
-0.465, -1.111e-9
-0.458, -1.035e-9
-0.451, -9.556e-10
-0.444, -8.886e-10
-0.437, -8.251e-10
-0.430, -7.678e-10
-0.423, -7.047e-10
-0.416, -6.481e-10
-0.409, -5.931e-10
-0.402, -5.391e-10
-0.395, -4.795e-10
-0.388, -4.295e-10
-0.381, -3.786e-10
-0.374, -3.343e-10
-0.367, -2.884e-10
-0.360, -2.341e-10
-0.353, -1.901e-10
-0.346, -1.442e-10
-0.339, -1.018e-10
-0.332, -5.796e-11
-0.325, -1.000e-11
-0.318, 3.465e-11
-0.311, 7.666e-11
-0.304, 1.183e-10
-0.297, 1.552e-10
-0.290, 1.949e-10
-0.283, 2.382e-10
-0.276, 2.785e-10
-0.269, 3.159e-10
-0.262, 3.555e-10
-0.255, 3.914e-10
-0.248, 4.287e-10
-0.241, 4.711e-10
-0.234, 5.139e-10
-0.227, 5.496e-10
-0.220, 5.853e-10
-0.213, 6.221e-10
-0.206, 6.563e-10
-0.199, 6.913e-10
-0.192, 7.269e-10
-0.185, 7.603e-10
-0.178, 7.937e-10
-0.171, 8.274e-10
-0.164, 8.649e-10
-0.157, 8.965e-10
-0.150, 9.315e-10
-0.143, 9.686e-10
-0.136, 1.002e-9
-0.129, 1.037e-9
-0.122, 1.069e-9
-0.115, 1.105e-9
-0.108, 1.140e-9
-0.101, 1.183e-9
-0.094, 1.222e-9
-0.087, 1.259e-9
-0.080, 1.301e-9
-0.073, 1.346e-9
-0.066, 1.392e-9
-0.059, 1.444e-9
-0.052, 1.492e-9
-0.045, 1.544e-9
-0.038, 1.600e-9
-0.031, 1.658e-9
-0.024, 1.722e-9
-0.017, 1.788e-9
-0.010, 1.858e-9
-0.003, 1.937e-9
0.004, 2.011e-9
0.011, 2.092e-9
0.018, 2.184e-9
0.025, 2.281e-9
0.032, 2.385e-9
0.039, 2.495e-9
0.046, 2.615e-9
0.053, 2.755e-9
0.060, 2.902e-9
0.067, 3.063e-9
0.074, 3.251e-9
0.081, 3.458e-9
0.088, 3.694e-9
0.095, 3.954e-9
0.102, 4.298e-9
0.109, 5.007e-9
0.116, 5.946e-9
0.123, 6.794e-9
0.130, 9.284e-9
0.137, 9.405e-9
0.144, 6.301e-9
0.151, 4.924e-9
0.158, 4.481e-9
0.165, 4.301e-9
0.172, 4.224e-9
0.179, 4.191e-9
0.186, 4.187e-9
0.193, 4.198e-9
0.200, 4.217e-9
0.207, 4.238e-9
0.214, 4.269e-9
0.221, 4.300e-9
0.228, 4.333e-9
0.235, 4.375e-9
0.242, 4.413e-9
0.249, 4.456e-9
0.256, 4.494e-9
0.263, 4.537e-9
0.270, 4.579e-9
0.277, 4.622e-9
0.284, 4.664e-9
0.291, 4.707e-9
0.298, 4.747e-9
0.305, 4.787e-9
0.312, 4.831e-9
0.319, 4.875e-9
0.326, 4.912e-9
0.333, 4.949e-9
0.340, 4.986e-9
0.347, 5.023e-9
0.354, 5.056e-9
0.361, 5.094e-9
0.368, 5.122e-9
0.375, 5.150e-9
0.382, 5.183e-9
0.389, 5.208e-9
0.396, 5.235e-9
0.403, 5.264e-9
0.410, 5.268e-9
0.417, 5.310e-9
0.424, 5.338e-9
0.431, 5.366e-9
0.438, 5.391e-9
0.445, 5.415e-9
0.452, 5.444e-9
0.459, 5.474e-9
0.466, 5.503e-9
0.473, 5.532e-9
0.480, 5.568e-9
0.487, 5.600e-9
0.494, 5.638e-9
0.499, 5.189e-9
0.492, 4.296e-9
0.485, 3.873e-9
0.478, 3.573e-9
0.471, 3.340e-9
0.464, 3.143e-9
0.457, 2.975e-9
0.450, 2.828e-9
0.443, 2.688e-9
0.436, 2.558e-9
0.429, 2.439e-9
0.422, 2.323e-9
0.415, 2.212e-9
0.408, 2.109e-9
0.401, 2.006e-9
0.394, 1.906e-9
0.387, 1.803e-9
0.380, 1.709e-9
0.373, 1.613e-9
0.366, 1.524e-9
0.359, 1.436e-9
0.352, 1.345e-9
0.345, 1.262e-9
0.338, 1.176e-9
0.331, 1.101e-9
0.324, 1.023e-9
0.317, 9.480e-10
0.310, 8.707e-10
0.303, 7.961e-10
0.296, 7.267e-10
0.289, 6.577e-10
0.282, 5.931e-10
0.275, 5.283e-10
0.268, 4.585e-10
0.261, 3.958e-10
0.254, 3.392e-10
0.247, 2.803e-10
0.240, 2.247e-10
0.233, 1.675e-10
0.226, 1.166e-10
0.219, 6.691e-11
0.212, 1.525e-11
0.205, -3.808e-11
0.198, -9.159e-11
0.191, -1.389e-10
0.184, -1.897e-10
0.177, -2.414e-10
0.170, -2.960e-10
0.163, -3.444e-10
0.156, -3.957e-10
0.149, -4.481e-10
0.142, -5.052e-10
0.135, -5.665e-10
0.128, -6.208e-10
0.121, -6.790e-10
0.114, -7.390e-10
0.107, -8.009e-10
0.100, -8.613e-10
0.093, -9.253e-10
0.086, -9.923e-10
0.079, -1.067e-9
0.072, -1.133e-9
0.065, -1.204e-9
0.058, -1.283e-9
0.051, -1.352e-9
0.044, -1.430e-9
0.037, -1.516e-9
0.030, -1.594e-9
0.023, -1.671e-9
0.016, -1.752e-9
0.009, -1.829e-9
0.002, -1.911e-9
-0.005, -1.982e-9
-0.012, -2.052e-9
-0.019, -2.120e-9
-0.026, -2.178e-9
-0.033, -2.243e-9
-0.040, -2.306e-9
-0.047, -2.382e-9
-0.054, -2.456e-9
-0.061, -2.484e-9
-0.068, -2.478e-9
-0.075, -2.479e-9
-0.082, -2.498e-9
-0.089, -2.523e-9
-0.096, -2.559e-9
-0.103, -2.573e-9
-0.110, -2.611e-9
-0.117, -2.607e-9
-0.124, -2.623e-9
-0.131, -2.638e-9
-0.138, -2.658e-9
-0.145, -2.665e-9
-0.152, -2.718e-9
-0.159, -2.696e-9
-0.166, -2.721e-9
-0.173, -2.723e-9
-0.180, -2.746e-9
-0.187, -2.748e-9
-0.194, -2.761e-9
-0.201, -2.783e-9
-0.208, -2.807e-9
-0.215, -2.830e-9
-0.222, -2.823e-9
-0.229, -2.841e-9
-0.236, -2.876e-9
-0.243, -2.880e-9
-0.250, -2.895e-9
-0.257, -2.913e-9
-0.264, -2.931e-9
-0.271, -2.956e-9
-0.278, -2.969e-9
-0.285, -2.989e-9
-0.292, -3.012e-9
-0.299, -3.035e-9
-0.306, -3.057e-9
-0.313, -3.084e-9
-0.320, -3.107e-9
-0.327, -3.130e-9
-0.334, -3.154e-9
-0.341, -3.183e-9
-0.348, -3.214e-9
-0.355, -3.234e-9
-0.362, -3.262e-9
-0.369, -3.284e-9
-0.376, -3.315e-9
-0.383, -3.345e-9
-0.390, -3.370e-9
-0.397, -3.399e-9
-0.404, -3.428e-9
-0.411, -3.459e-9
-0.418, -3.486e-9
-0.425, -3.512e-9
-0.432, -3.541e-9
-0.439, -3.571e-9
-0.446, -3.604e-9
-0.453, -3.638e-9
-0.460, -3.674e-9
-0.467, -3.712e-9
-0.474, -3.745e-9
-0.481, -3.776e-9
-0.488, -3.813e-9
-0.495, -3.854e-9
-0.499, -3.875e-9