File: Fig 4/Fig 3b CV surface light/CV_surface_light_8.csv
Sept. 26, 2024   14:54:48
Cyclic Voltammetry
File: c:\users\secm\desktop\data\lmxlm2\+12 2319-1\26-09-2024 - lamp inside cage\region 2\+12 2319-1 fto cv_cells_light_surface_20_8.csv
Data Source:  Experiment
Instrument Model:  CHI920C
Ref. Electrode:
Header:
Note:

Init E (V) = -0.5
High E (V) = 0.5
Low E (V) = -0.5
Init P/N = P
Scan Rate (V/s) = 0.05
Segment = 2
Sample Interval (V) = 0.001
Quiet Time (sec) = 10
Sensitivity (A/V) = 1e-7

Results:

Channel 1:
Segment 1:
Ep = 0.134V
ip = 1.012e-8A
Ah = 5.449e-9C

Segment 2:

Potential/V, Current/A

-0.500, -1.836e-9
-0.493, -1.518e-9
-0.486, -1.374e-9
-0.479, -1.264e-9
-0.472, -1.165e-9
-0.465, -1.081e-9
-0.458, -1.002e-9
-0.451, -9.277e-10
-0.444, -8.599e-10
-0.437, -8.010e-10
-0.430, -7.357e-10
-0.423, -6.758e-10
-0.416, -6.202e-10
-0.409, -5.680e-10
-0.402, -5.086e-10
-0.395, -4.535e-10
-0.388, -4.027e-10
-0.381, -3.565e-10
-0.374, -3.120e-10
-0.367, -2.600e-10
-0.360, -2.094e-10
-0.353, -1.650e-10
-0.346, -1.210e-10
-0.339, -7.834e-11
-0.332, -3.466e-11
-0.325, 1.388e-11
-0.318, 5.551e-11
-0.311, 9.703e-11
-0.304, 1.399e-10
-0.297, 1.738e-10
-0.290, 2.181e-10
-0.283, 2.593e-10
-0.276, 2.995e-10
-0.269, 3.354e-10
-0.262, 3.739e-10
-0.255, 4.088e-10
-0.248, 4.502e-10
-0.241, 4.939e-10
-0.234, 5.324e-10
-0.227, 5.678e-10
-0.220, 6.038e-10
-0.213, 6.363e-10
-0.206, 6.713e-10
-0.199, 7.063e-10
-0.192, 7.407e-10
-0.185, 7.752e-10
-0.178, 8.063e-10
-0.171, 8.434e-10
-0.164, 8.744e-10
-0.157, 9.109e-10
-0.150, 9.450e-10
-0.143, 9.787e-10
-0.136, 1.013e-9
-0.129, 1.046e-9
-0.122, 1.080e-9
-0.115, 1.114e-9
-0.108, 1.148e-9
-0.101, 1.190e-9
-0.094, 1.228e-9
-0.087, 1.267e-9
-0.080, 1.308e-9
-0.073, 1.353e-9
-0.066, 1.397e-9
-0.059, 1.447e-9
-0.052, 1.496e-9
-0.045, 1.548e-9
-0.038, 1.603e-9
-0.031, 1.663e-9
-0.024, 1.725e-9
-0.017, 1.790e-9
-0.010, 1.860e-9
-0.003, 1.939e-9
0.004, 2.013e-9
0.011, 2.097e-9
0.018, 2.189e-9
0.025, 2.287e-9
0.032, 2.391e-9
0.039, 2.504e-9
0.046, 2.625e-9
0.053, 2.766e-9
0.060, 2.919e-9
0.067, 3.082e-9
0.074, 3.277e-9
0.081, 3.491e-9
0.088, 3.736e-9
0.095, 4.012e-9
0.102, 4.400e-9
0.109, 5.374e-9
0.116, 6.779e-9
0.123, 7.717e-9
0.130, 1.090e-8
0.137, 1.129e-8
0.144, 6.709e-9
0.151, 4.988e-9
0.158, 4.493e-9
0.165, 4.306e-9
0.172, 4.226e-9
0.179, 4.190e-9
0.186, 4.186e-9
0.193, 4.193e-9
0.200, 4.215e-9
0.207, 4.237e-9
0.214, 4.269e-9
0.221, 4.298e-9
0.228, 4.331e-9
0.235, 4.369e-9
0.242, 4.408e-9
0.249, 4.449e-9
0.256, 4.489e-9
0.263, 4.531e-9
0.270, 4.572e-9
0.277, 4.616e-9
0.284, 4.657e-9
0.291, 4.700e-9
0.298, 4.738e-9
0.305, 4.779e-9
0.312, 4.826e-9
0.319, 4.864e-9
0.326, 4.903e-9
0.333, 4.939e-9
0.340, 4.977e-9
0.347, 5.009e-9
0.354, 5.044e-9
0.361, 5.077e-9
0.368, 5.109e-9
0.375, 5.138e-9
0.382, 5.166e-9
0.389, 5.194e-9
0.396, 5.221e-9
0.403, 5.246e-9
0.410, 5.253e-9
0.417, 5.291e-9
0.424, 5.316e-9
0.431, 5.346e-9
0.438, 5.373e-9
0.445, 5.398e-9
0.452, 5.422e-9
0.459, 5.455e-9
0.466, 5.484e-9
0.473, 5.519e-9
0.480, 5.549e-9
0.487, 5.585e-9
0.494, 5.624e-9
0.499, 5.169e-9
0.492, 4.276e-9
0.485, 3.851e-9
0.478, 3.554e-9
0.471, 3.319e-9
0.464, 3.122e-9
0.457, 2.959e-9
0.450, 2.808e-9
0.443, 2.669e-9
0.436, 2.543e-9
0.429, 2.422e-9
0.422, 2.306e-9
0.415, 2.194e-9
0.408, 2.093e-9
0.401, 1.987e-9
0.394, 1.885e-9
0.387, 1.786e-9
0.380, 1.692e-9
0.373, 1.598e-9
0.366, 1.507e-9
0.359, 1.417e-9
0.352, 1.327e-9
0.345, 1.243e-9
0.338, 1.155e-9
0.331, 1.081e-9
0.324, 1.001e-9
0.317, 9.261e-10
0.310, 8.492e-10
0.303, 7.752e-10
0.296, 7.024e-10
0.289, 6.354e-10
0.282, 5.689e-10
0.275, 5.029e-10
0.268, 4.308e-10
0.261, 3.686e-10
0.254, 3.108e-10
0.247, 2.527e-10
0.240, 1.976e-10
0.233, 1.448e-10
0.226, 9.138e-11
0.219, 4.137e-11
0.212, -1.332e-11
0.205, -6.381e-11
0.198, -1.163e-10
0.191, -1.633e-10
0.184, -2.127e-10
0.177, -2.672e-10
0.170, -3.215e-10
0.163, -3.675e-10
0.156, -4.197e-10
0.149, -4.705e-10
0.142, -5.329e-10
0.135, -5.879e-10
0.128, -6.449e-10
0.121, -7.036e-10
0.114, -7.652e-10
0.107, -8.239e-10
0.100, -8.869e-10
0.093, -9.521e-10
0.086, -1.023e-9
0.079, -1.094e-9
0.072, -1.164e-9
0.065, -1.244e-9
0.058, -1.321e-9
0.051, -1.398e-9
0.044, -1.483e-9
0.037, -1.571e-9
0.030, -1.654e-9
0.023, -1.743e-9
0.016, -1.827e-9
0.009, -1.917e-9
0.002, -2.003e-9
-0.005, -2.081e-9
-0.012, -2.159e-9
-0.019, -2.230e-9
-0.026, -2.294e-9
-0.033, -2.368e-9
-0.040, -2.445e-9
-0.047, -2.527e-9
-0.054, -2.602e-9
-0.061, -2.591e-9
-0.068, -2.583e-9
-0.075, -2.587e-9
-0.082, -2.609e-9
-0.089, -2.644e-9
-0.096, -2.647e-9
-0.103, -2.673e-9
-0.110, -2.730e-9
-0.117, -2.710e-9
-0.124, -2.715e-9
-0.131, -2.735e-9
-0.138, -2.741e-9
-0.145, -2.767e-9
-0.152, -2.766e-9
-0.159, -2.771e-9
-0.166, -2.781e-9
-0.173, -2.810e-9
-0.180, -2.819e-9
-0.187, -2.819e-9
-0.194, -2.831e-9
-0.201, -2.837e-9
-0.208, -2.851e-9
-0.215, -2.863e-9
-0.222, -2.882e-9
-0.229, -2.890e-9
-0.236, -2.922e-9
-0.243, -2.919e-9
-0.250, -2.944e-9
-0.257, -2.954e-9
-0.264, -2.972e-9
-0.271, -2.992e-9
-0.278, -3.010e-9
-0.285, -3.026e-9
-0.292, -3.046e-9
-0.299, -3.067e-9
-0.306, -3.094e-9
-0.313, -3.120e-9
-0.320, -3.145e-9
-0.327, -3.157e-9
-0.334, -3.180e-9
-0.341, -3.206e-9
-0.348, -3.229e-9
-0.355, -3.253e-9
-0.362, -3.276e-9
-0.369, -3.304e-9
-0.376, -3.330e-9
-0.383, -3.356e-9
-0.390, -3.384e-9
-0.397, -3.409e-9
-0.404, -3.439e-9
-0.411, -3.465e-9
-0.418, -3.491e-9
-0.425, -3.517e-9
-0.432, -3.548e-9
-0.439, -3.574e-9
-0.446, -3.605e-9
-0.453, -3.643e-9
-0.460, -3.675e-9
-0.467, -3.711e-9
-0.474, -3.740e-9
-0.481, -3.773e-9
-0.488, -3.809e-9
-0.495, -3.845e-9
-0.499, -3.866e-9