File: Fig 4/Fig 3b CV surface light/CV_surface_light_4.csv
Sept. 26, 2024   14:50:19
Cyclic Voltammetry
File: c:\users\secm\desktop\data\lmxlm2\+12 2319-1\26-09-2024 - lamp inside cage\region 2\+12 2319-1 fto cv_cells_light_surface_20_4.csv
Data Source:  Experiment
Instrument Model:  CHI920C
Ref. Electrode:
Header:
Note:

Init E (V) = -0.5
High E (V) = 0.5
Low E (V) = -0.5
Init P/N = P
Scan Rate (V/s) = 0.05
Segment = 2
Sample Interval (V) = 0.001
Quiet Time (sec) = 10
Sensitivity (A/V) = 1e-7

Results:

Channel 1:
Segment 1:
Ep = 0.135V
ip = 2.435e-9A
Ah = 3.037e-9C

Segment 2:

Potential/V, Current/A

-0.500, -2.039e-9
-0.493, -1.716e-9
-0.486, -1.577e-9
-0.479, -1.453e-9
-0.472, -1.358e-9
-0.465, -1.272e-9
-0.458, -1.188e-9
-0.451, -1.111e-9
-0.444, -1.045e-9
-0.437, -9.720e-10
-0.430, -9.098e-10
-0.423, -8.503e-10
-0.416, -7.967e-10
-0.409, -7.364e-10
-0.402, -6.807e-10
-0.395, -6.275e-10
-0.388, -5.773e-10
-0.381, -5.253e-10
-0.374, -4.694e-10
-0.367, -4.222e-10
-0.360, -3.737e-10
-0.353, -3.301e-10
-0.346, -2.829e-10
-0.339, -2.320e-10
-0.332, -1.875e-10
-0.325, -1.427e-10
-0.318, -1.010e-10
-0.311, -5.806e-11
-0.304, -1.137e-11
-0.297, 3.289e-11
-0.290, 7.529e-11
-0.283, 1.156e-10
-0.276, 1.528e-10
-0.269, 1.913e-10
-0.262, 2.335e-10
-0.255, 2.721e-10
-0.248, 3.130e-10
-0.241, 3.509e-10
-0.234, 3.875e-10
-0.227, 4.226e-10
-0.220, 4.648e-10
-0.213, 5.061e-10
-0.206, 5.457e-10
-0.199, 5.817e-10
-0.192, 6.176e-10
-0.185, 6.532e-10
-0.178, 6.875e-10
-0.171, 7.273e-10
-0.164, 7.624e-10
-0.157, 7.980e-10
-0.150, 8.327e-10
-0.143, 8.717e-10
-0.136, 9.083e-10
-0.129, 9.473e-10
-0.122, 9.850e-10
-0.115, 1.023e-9
-0.108, 1.060e-9
-0.101, 1.104e-9
-0.094, 1.141e-9
-0.087, 1.181e-9
-0.080, 1.226e-9
-0.073, 1.270e-9
-0.066, 1.320e-9
-0.059, 1.370e-9
-0.052, 1.424e-9
-0.045, 1.478e-9
-0.038, 1.530e-9
-0.031, 1.590e-9
-0.024, 1.649e-9
-0.017, 1.718e-9
-0.010, 1.783e-9
-0.003, 1.858e-9
0.004, 1.935e-9
0.011, 2.012e-9
0.018, 2.095e-9
0.025, 2.189e-9
0.032, 2.281e-9
0.039, 2.384e-9
0.046, 2.494e-9
0.053, 2.611e-9
0.060, 2.750e-9
0.067, 2.889e-9
0.074, 3.044e-9
0.081, 3.216e-9
0.088, 3.403e-9
0.095, 3.594e-9
0.102, 3.809e-9
0.109, 4.045e-9
0.116, 4.292e-9
0.123, 4.559e-9
0.130, 4.773e-9
0.137, 4.829e-9
0.144, 4.610e-9
0.151, 4.338e-9
0.158, 4.189e-9
0.165, 4.100e-9
0.172, 4.064e-9
0.179, 4.052e-9
0.186, 4.058e-9
0.193, 4.074e-9
0.200, 4.102e-9
0.207, 4.132e-9
0.214, 4.170e-9
0.221, 4.209e-9
0.228, 4.251e-9
0.235, 4.289e-9
0.242, 4.326e-9
0.249, 4.374e-9
0.256, 4.414e-9
0.263, 4.461e-9
0.270, 4.504e-9
0.277, 4.550e-9
0.284, 4.595e-9
0.291, 4.640e-9
0.298, 4.683e-9
0.305, 4.726e-9
0.312, 4.771e-9
0.319, 4.813e-9
0.326, 4.857e-9
0.333, 4.893e-9
0.340, 4.935e-9
0.347, 4.973e-9
0.354, 5.013e-9
0.361, 5.045e-9
0.368, 5.079e-9
0.375, 5.114e-9
0.382, 5.145e-9
0.389, 5.174e-9
0.396, 5.207e-9
0.403, 5.229e-9
0.410, 5.240e-9
0.417, 5.280e-9
0.424, 5.305e-9
0.431, 5.336e-9
0.438, 5.362e-9
0.445, 5.387e-9
0.452, 5.414e-9
0.459, 5.441e-9
0.466, 5.472e-9
0.473, 5.500e-9
0.480, 5.531e-9
0.487, 5.563e-9
0.494, 5.603e-9
0.499, 5.172e-9
0.492, 4.300e-9
0.485, 3.880e-9
0.478, 3.580e-9
0.471, 3.346e-9
0.464, 3.152e-9
0.457, 2.983e-9
0.450, 2.833e-9
0.443, 2.694e-9
0.436, 2.563e-9
0.429, 2.443e-9
0.422, 2.330e-9
0.415, 2.218e-9
0.408, 2.115e-9
0.401, 2.014e-9
0.394, 1.912e-9
0.387, 1.815e-9
0.380, 1.719e-9
0.373, 1.627e-9
0.366, 1.539e-9
0.359, 1.454e-9
0.352, 1.367e-9
0.345, 1.285e-9
0.338, 1.202e-9
0.331, 1.123e-9
0.324, 1.051e-9
0.317, 9.828e-10
0.310, 9.098e-10
0.303, 8.351e-10
0.296, 7.693e-10
0.289, 7.050e-10
0.282, 6.422e-10
0.275, 5.804e-10
0.268, 5.211e-10
0.261, 4.548e-10
0.254, 3.945e-10
0.247, 3.410e-10
0.240, 2.875e-10
0.233, 2.316e-10
0.226, 1.744e-10
0.219, 1.281e-10
0.212, 7.520e-11
0.205, 2.772e-11
0.198, -2.999e-11
0.191, -8.165e-11
0.184, -1.324e-10
0.177, -1.835e-10
0.170, -2.367e-10
0.163, -2.946e-10
0.156, -3.442e-10
0.149, -3.976e-10
0.142, -4.536e-10
0.135, -5.131e-10
0.128, -5.716e-10
0.121, -6.279e-10
0.114, -6.865e-10
0.107, -7.448e-10
0.100, -8.095e-10
0.093, -8.653e-10
0.086, -9.265e-10
0.079, -9.900e-10
0.072, -1.056e-9
0.065, -1.118e-9
0.058, -1.180e-9
0.051, -1.244e-9
0.044, -1.310e-9
0.037, -1.371e-9
0.030, -1.432e-9
0.023, -1.497e-9
0.016, -1.560e-9
0.009, -1.617e-9
0.002, -1.673e-9
-0.005, -1.728e-9
-0.012, -1.785e-9
-0.019, -1.841e-9
-0.026, -1.890e-9
-0.033, -1.940e-9
-0.040, -1.989e-9
-0.047, -2.035e-9
-0.054, -2.076e-9
-0.061, -2.120e-9
-0.068, -2.160e-9
-0.075, -2.195e-9
-0.082, -2.235e-9
-0.089, -2.284e-9
-0.096, -2.302e-9
-0.103, -2.341e-9
-0.110, -2.371e-9
-0.117, -2.394e-9
-0.124, -2.423e-9
-0.131, -2.448e-9
-0.138, -2.473e-9
-0.145, -2.498e-9
-0.152, -2.521e-9
-0.159, -2.544e-9
-0.166, -2.570e-9
-0.173, -2.588e-9
-0.180, -2.609e-9
-0.187, -2.635e-9
-0.194, -2.651e-9
-0.201, -2.675e-9
-0.208, -2.693e-9
-0.215, -2.718e-9
-0.222, -2.742e-9
-0.229, -2.764e-9
-0.236, -2.784e-9
-0.243, -2.809e-9
-0.250, -2.833e-9
-0.257, -2.858e-9
-0.264, -2.884e-9
-0.271, -2.909e-9
-0.278, -2.935e-9
-0.285, -2.958e-9
-0.292, -2.987e-9
-0.299, -3.013e-9
-0.306, -3.041e-9
-0.313, -3.069e-9
-0.320, -3.102e-9
-0.327, -3.127e-9
-0.334, -3.155e-9
-0.341, -3.186e-9
-0.348, -3.219e-9
-0.355, -3.248e-9
-0.362, -3.278e-9
-0.369, -3.308e-9
-0.376, -3.345e-9
-0.383, -3.376e-9
-0.390, -3.408e-9
-0.397, -3.438e-9
-0.404, -3.473e-9
-0.411, -3.502e-9
-0.418, -3.534e-9
-0.425, -3.568e-9
-0.432, -3.603e-9
-0.439, -3.641e-9
-0.446, -3.683e-9
-0.453, -3.721e-9
-0.460, -3.754e-9
-0.467, -3.792e-9
-0.474, -3.828e-9
-0.481, -3.873e-9
-0.488, -3.914e-9
-0.495, -3.958e-9
-0.499, -3.981e-9