File: Fig 4/Fig 3b CV surface light/CV_surface_light_11.csv
Sept. 26, 2024   14:58:25
Cyclic Voltammetry
File: c:\users\secm\desktop\data\lmxlm2\+12 2319-1\26-09-2024 - lamp inside cage\region 2\+12 2319-1 fto cv_cells_light_surface_20_11.csv
Data Source:  Experiment
Instrument Model:  CHI920C
Ref. Electrode:
Header:
Note:

Init E (V) = -0.5
High E (V) = 0.5
Low E (V) = -0.5
Init P/N = P
Scan Rate (V/s) = 0.05
Segment = 2
Sample Interval (V) = 0.001
Quiet Time (sec) = 10
Sensitivity (A/V) = 1e-7

Results:

Channel 1:
Segment 1:
Ep = 0.134V
ip = 2.157e-8A
Ah = 8.371e-9C

Segment 2:
Ep = -0.057V
ip = -1.347e-9A
Ah = -2.075e-9C

Potential/V, Current/A

-0.500, -1.781e-9
-0.493, -1.454e-9
-0.486, -1.321e-9
-0.479, -1.208e-9
-0.472, -1.115e-9
-0.465, -1.033e-9
-0.458, -9.504e-10
-0.451, -8.822e-10
-0.444, -8.172e-10
-0.437, -7.543e-10
-0.430, -6.944e-10
-0.423, -6.360e-10
-0.416, -5.812e-10
-0.409, -5.274e-10
-0.402, -4.699e-10
-0.395, -4.173e-10
-0.388, -3.678e-10
-0.381, -3.231e-10
-0.374, -2.759e-10
-0.367, -2.243e-10
-0.360, -1.802e-10
-0.353, -1.347e-10
-0.346, -9.208e-11
-0.339, -5.075e-11
-0.332, -3.763e-12
-0.325, 3.825e-11
-0.318, 8.066e-11
-0.311, 1.213e-10
-0.304, 1.584e-10
-0.297, 1.980e-10
-0.290, 2.406e-10
-0.283, 2.798e-10
-0.276, 3.158e-10
-0.269, 3.542e-10
-0.262, 3.902e-10
-0.255, 4.241e-10
-0.248, 4.680e-10
-0.241, 5.085e-10
-0.234, 5.456e-10
-0.227, 5.787e-10
-0.220, 6.155e-10
-0.213, 6.481e-10
-0.206, 6.828e-10
-0.199, 7.157e-10
-0.192, 7.489e-10
-0.185, 7.826e-10
-0.178, 8.146e-10
-0.171, 8.474e-10
-0.164, 8.811e-10
-0.157, 9.140e-10
-0.150, 9.471e-10
-0.143, 9.812e-10
-0.136, 1.013e-9
-0.129, 1.048e-9
-0.122, 1.081e-9
-0.115, 1.113e-9
-0.108, 1.147e-9
-0.101, 1.188e-9
-0.094, 1.225e-9
-0.087, 1.264e-9
-0.080, 1.306e-9
-0.073, 1.349e-9
-0.066, 1.394e-9
-0.059, 1.444e-9
-0.052, 1.492e-9
-0.045, 1.546e-9
-0.038, 1.600e-9
-0.031, 1.661e-9
-0.024, 1.725e-9
-0.017, 1.794e-9
-0.010, 1.870e-9
-0.003, 1.949e-9
0.004, 2.028e-9
0.011, 2.114e-9
0.018, 2.213e-9
0.025, 2.320e-9
0.032, 2.434e-9
0.039, 2.555e-9
0.046, 2.692e-9
0.053, 2.846e-9
0.060, 3.015e-9
0.067, 3.211e-9
0.074, 3.431e-9
0.081, 3.684e-9
0.088, 3.980e-9
0.095, 4.324e-9
0.102, 4.895e-9
0.109, 6.500e-9
0.116, 9.433e-9
0.123, 1.351e-8
0.130, 1.828e-8
0.137, 2.032e-8
0.144, 8.188e-9
0.151, 5.352e-9
0.158, 4.730e-9
0.165, 4.493e-9
0.172, 4.380e-9
0.179, 4.323e-9
0.186, 4.303e-9
0.193, 4.297e-9
0.200, 4.303e-9
0.207, 4.313e-9
0.214, 4.336e-9
0.221, 4.361e-9
0.228, 4.391e-9
0.235, 4.424e-9
0.242, 4.456e-9
0.249, 4.493e-9
0.256, 4.530e-9
0.263, 4.567e-9
0.270, 4.609e-9
0.277, 4.646e-9
0.284, 4.683e-9
0.291, 4.721e-9
0.298, 4.757e-9
0.305, 4.796e-9
0.312, 4.841e-9
0.319, 4.873e-9
0.326, 4.909e-9
0.333, 4.939e-9
0.340, 4.973e-9
0.347, 5.007e-9
0.354, 5.034e-9
0.361, 5.062e-9
0.368, 5.090e-9
0.375, 5.118e-9
0.382, 5.141e-9
0.389, 5.163e-9
0.396, 5.189e-9
0.403, 5.211e-9
0.410, 5.215e-9
0.417, 5.255e-9
0.424, 5.276e-9
0.431, 5.302e-9
0.438, 5.327e-9
0.445, 5.353e-9
0.452, 5.378e-9
0.459, 5.403e-9
0.466, 5.435e-9
0.473, 5.468e-9
0.480, 5.499e-9
0.487, 5.532e-9
0.494, 5.569e-9
0.499, 5.111e-9
0.492, 4.206e-9
0.485, 3.779e-9
0.478, 3.478e-9
0.471, 3.245e-9
0.464, 3.050e-9
0.457, 2.882e-9
0.450, 2.732e-9
0.443, 2.589e-9
0.436, 2.463e-9
0.429, 2.344e-9
0.422, 2.229e-9
0.415, 2.113e-9
0.408, 2.016e-9
0.401, 1.909e-9
0.394, 1.804e-9
0.387, 1.706e-9
0.380, 1.608e-9
0.373, 1.514e-9
0.366, 1.423e-9
0.359, 1.329e-9
0.352, 1.239e-9
0.345, 1.151e-9
0.338, 1.070e-9
0.331, 9.888e-10
0.324, 9.045e-10
0.317, 8.251e-10
0.310, 7.463e-10
0.303, 6.672e-10
0.296, 5.963e-10
0.289, 5.247e-10
0.282, 4.456e-10
0.275, 3.784e-10
0.268, 3.157e-10
0.261, 2.533e-10
0.254, 1.857e-10
0.247, 1.332e-10
0.240, 7.793e-11
0.233, 2.110e-11
0.226, -3.427e-11
0.219, -8.964e-11
0.212, -1.384e-10
0.205, -1.851e-10
0.198, -2.372e-10
0.191, -2.893e-10
0.184, -3.392e-10
0.177, -3.842e-10
0.170, -4.350e-10
0.163, -4.845e-10
0.156, -5.426e-10
0.149, -5.956e-10
0.142, -6.503e-10
0.135, -7.049e-10
0.128, -7.654e-10
0.121, -8.240e-10
0.114, -8.830e-10
0.107, -9.498e-10
0.100, -1.026e-9
0.093, -1.095e-9
0.086, -1.167e-9
0.079, -1.249e-9
0.072, -1.332e-9
0.065, -1.417e-9
0.058, -1.516e-9
0.051, -1.609e-9
0.044, -1.712e-9
0.037, -1.821e-9
0.030, -1.939e-9
0.023, -2.059e-9
0.016, -2.180e-9
0.009, -2.302e-9
0.002, -2.421e-9
-0.005, -2.534e-9
-0.012, -2.638e-9
-0.019, -2.740e-9
-0.026, -2.841e-9
-0.033, -2.967e-9
-0.040, -3.118e-9
-0.047, -3.260e-9
-0.054, -3.345e-9
-0.061, -3.249e-9
-0.068, -3.159e-9
-0.075, -3.137e-9
-0.082, -3.143e-9
-0.089, -3.211e-9
-0.096, -3.196e-9
-0.103, -3.194e-9
-0.110, -3.206e-9
-0.117, -3.180e-9
-0.124, -3.192e-9
-0.131, -3.203e-9
-0.138, -3.194e-9
-0.145, -3.227e-9
-0.152, -3.245e-9
-0.159, -3.182e-9
-0.166, -3.235e-9
-0.173, -3.176e-9
-0.180, -3.188e-9
-0.187, -3.202e-9
-0.194, -3.208e-9
-0.201, -3.244e-9
-0.208, -3.231e-9
-0.215, -3.230e-9
-0.222, -3.207e-9
-0.229, -3.202e-9
-0.236, -3.219e-9
-0.243, -3.206e-9
-0.250, -3.249e-9
-0.257, -3.228e-9
-0.264, -3.256e-9
-0.271, -3.253e-9
-0.278, -3.276e-9
-0.285, -3.257e-9
-0.292, -3.289e-9
-0.299, -3.283e-9
-0.306, -3.310e-9
-0.313, -3.343e-9
-0.320, -3.332e-9
-0.327, -3.344e-9
-0.334, -3.363e-9
-0.341, -3.381e-9
-0.348, -3.392e-9
-0.355, -3.412e-9
-0.362, -3.430e-9
-0.369, -3.467e-9
-0.376, -3.466e-9
-0.383, -3.484e-9
-0.390, -3.506e-9
-0.397, -3.532e-9
-0.404, -3.539e-9
-0.411, -3.561e-9
-0.418, -3.585e-9
-0.425, -3.620e-9
-0.432, -3.631e-9
-0.439, -3.659e-9
-0.446, -3.685e-9
-0.453, -3.710e-9
-0.460, -3.736e-9
-0.467, -3.772e-9
-0.474, -3.801e-9
-0.481, -3.821e-9
-0.488, -3.849e-9
-0.495, -3.879e-9
-0.499, -3.898e-9