File: Fig 4/Fig 3b CV surface light/CV_surface_light_1.csv
Sept. 26, 2024   14:46:40
Cyclic Voltammetry
File: c:\users\secm\desktop\data\lmxlm2\+12 2319-1\26-09-2024 - lamp inside cage\region 2\+12 2319-1 fto cv_cells_light_surface_20.csv
Data Source:  Experiment
Instrument Model:  CHI920C
Ref. Electrode:
Header:
Note:

Init E (V) = -0.5
High E (V) = 0.5
Low E (V) = -0.5
Init P/N = P
Scan Rate (V/s) = 0.05
Segment = 2
Sample Interval (V) = 0.001
Quiet Time (sec) = 10
Sensitivity (A/V) = 1e-7

Results:

Channel 1:
Segment 1:

Segment 2:

Potential/V, Current/A

-0.500, -3.472e-9
-0.493, -3.107e-9
-0.486, -2.918e-9
-0.479, -2.769e-9
-0.472, -2.643e-9
-0.465, -2.532e-9
-0.458, -2.432e-9
-0.451, -2.337e-9
-0.444, -2.249e-9
-0.437, -2.166e-9
-0.430, -2.090e-9
-0.423, -2.018e-9
-0.416, -1.943e-9
-0.409, -1.875e-9
-0.402, -1.807e-9
-0.395, -1.745e-9
-0.388, -1.679e-9
-0.381, -1.623e-9
-0.374, -1.566e-9
-0.367, -1.509e-9
-0.360, -1.446e-9
-0.353, -1.391e-9
-0.346, -1.338e-9
-0.339, -1.284e-9
-0.332, -1.227e-9
-0.325, -1.172e-9
-0.318, -1.119e-9
-0.311, -1.069e-9
-0.304, -1.016e-9
-0.297, -9.608e-10
-0.290, -9.109e-10
-0.283, -8.590e-10
-0.276, -8.133e-10
-0.269, -7.646e-10
-0.262, -7.118e-10
-0.255, -6.651e-10
-0.248, -6.131e-10
-0.241, -5.685e-10
-0.234, -5.145e-10
-0.227, -4.642e-10
-0.220, -4.160e-10
-0.213, -3.676e-10
-0.206, -3.234e-10
-0.199, -2.735e-10
-0.192, -2.225e-10
-0.185, -1.757e-10
-0.178, -1.288e-10
-0.171, -8.311e-11
-0.164, -3.720e-11
-0.157, 1.534e-11
-0.150, 6.106e-11
-0.143, 1.043e-10
-0.136, 1.493e-10
-0.129, 1.919e-10
-0.122, 2.423e-10
-0.115, 2.863e-10
-0.108, 3.318e-10
-0.101, 3.802e-10
-0.094, 4.212e-10
-0.087, 4.752e-10
-0.080, 5.231e-10
-0.073, 5.686e-10
-0.066, 6.164e-10
-0.059, 6.614e-10
-0.052, 7.091e-10
-0.045, 7.565e-10
-0.038, 8.010e-10
-0.031, 8.541e-10
-0.024, 9.049e-10
-0.017, 9.549e-10
-0.010, 1.005e-9
-0.003, 1.056e-9
0.004, 1.104e-9
0.011, 1.156e-9
0.018, 1.214e-9
0.025, 1.269e-9
0.032, 1.323e-9
0.039, 1.381e-9
0.046, 1.442e-9
0.053, 1.499e-9
0.060, 1.560e-9
0.067, 1.618e-9
0.074, 1.679e-9
0.081, 1.742e-9
0.088, 1.806e-9
0.095, 1.867e-9
0.102, 1.935e-9
0.109, 1.997e-9
0.116, 2.058e-9
0.123, 2.117e-9
0.130, 2.185e-9
0.137, 2.246e-9
0.144, 2.306e-9
0.151, 2.370e-9
0.158, 2.433e-9
0.165, 2.491e-9
0.172, 2.551e-9
0.179, 2.607e-9
0.186, 2.668e-9
0.193, 2.730e-9
0.200, 2.789e-9
0.207, 2.837e-9
0.214, 2.896e-9
0.221, 2.946e-9
0.228, 3.000e-9
0.235, 3.048e-9
0.242, 3.094e-9
0.249, 3.144e-9
0.256, 3.194e-9
0.263, 3.244e-9
0.270, 3.288e-9
0.277, 3.331e-9
0.284, 3.377e-9
0.291, 3.422e-9
0.298, 3.462e-9
0.305, 3.506e-9
0.312, 3.548e-9
0.319, 3.587e-9
0.326, 3.628e-9
0.333, 3.669e-9
0.340, 3.708e-9
0.347, 3.749e-9
0.354, 3.785e-9
0.361, 3.821e-9
0.368, 3.855e-9
0.375, 3.888e-9
0.382, 3.926e-9
0.389, 3.958e-9
0.396, 3.995e-9
0.403, 4.023e-9
0.410, 4.044e-9
0.417, 4.084e-9
0.424, 4.114e-9
0.431, 4.151e-9
0.438, 4.184e-9
0.445, 4.217e-9
0.452, 4.251e-9
0.459, 4.282e-9
0.466, 4.311e-9
0.473, 4.346e-9
0.480, 4.383e-9
0.487, 4.413e-9
0.494, 4.450e-9
0.499, 4.129e-9
0.492, 3.423e-9
0.485, 3.059e-9
0.478, 2.800e-9
0.471, 2.585e-9
0.464, 2.408e-9
0.457, 2.252e-9
0.450, 2.113e-9
0.443, 1.991e-9
0.436, 1.870e-9
0.429, 1.760e-9
0.422, 1.656e-9
0.415, 1.558e-9
0.408, 1.473e-9
0.401, 1.374e-9
0.394, 1.287e-9
0.387, 1.204e-9
0.380, 1.123e-9
0.373, 1.051e-9
0.366, 9.767e-10
0.359, 9.006e-10
0.352, 8.301e-10
0.345, 7.623e-10
0.338, 6.961e-10
0.331, 6.328e-10
0.324, 5.683e-10
0.317, 5.096e-10
0.310, 4.438e-10
0.303, 3.827e-10
0.296, 3.298e-10
0.289, 2.789e-10
0.282, 2.234e-10
0.275, 1.699e-10
0.268, 1.238e-10
0.261, 7.354e-11
0.254, 2.675e-11
0.247, -2.482e-11
0.240, -7.629e-11
0.233, -1.222e-10
0.226, -1.694e-10
0.219, -2.174e-10
0.212, -2.671e-10
0.205, -3.155e-10
0.198, -3.597e-10
0.191, -4.083e-10
0.184, -4.572e-10
0.177, -5.076e-10
0.170, -5.629e-10
0.163, -6.108e-10
0.156, -6.621e-10
0.149, -7.143e-10
0.142, -7.714e-10
0.135, -8.243e-10
0.128, -8.766e-10
0.121, -9.359e-10
0.114, -9.937e-10
0.107, -1.058e-9
0.100, -1.116e-9
0.093, -1.177e-9
0.086, -1.239e-9
0.079, -1.304e-9
0.072, -1.360e-9
0.065, -1.423e-9
0.058, -1.485e-9
0.051, -1.550e-9
0.044, -1.611e-9
0.037, -1.667e-9
0.030, -1.725e-9
0.023, -1.787e-9
0.016, -1.845e-9
0.009, -1.903e-9
0.002, -1.962e-9
-0.005, -2.017e-9
-0.012, -2.071e-9
-0.019, -2.128e-9
-0.026, -2.179e-9
-0.033, -2.233e-9
-0.040, -2.282e-9
-0.047, -2.330e-9
-0.054, -2.381e-9
-0.061, -2.425e-9
-0.068, -2.470e-9
-0.075, -2.513e-9
-0.082, -2.555e-9
-0.089, -2.594e-9
-0.096, -2.630e-9
-0.103, -2.673e-9
-0.110, -2.705e-9
-0.117, -2.739e-9
-0.124, -2.771e-9
-0.131, -2.799e-9
-0.138, -2.832e-9
-0.145, -2.862e-9
-0.152, -2.890e-9
-0.159, -2.915e-9
-0.166, -2.941e-9
-0.173, -2.971e-9
-0.180, -2.997e-9
-0.187, -3.021e-9
-0.194, -3.044e-9
-0.201, -3.071e-9
-0.208, -3.094e-9
-0.215, -3.119e-9
-0.222, -3.143e-9
-0.229, -3.170e-9
-0.236, -3.192e-9
-0.243, -3.220e-9
-0.250, -3.248e-9
-0.257, -3.271e-9
-0.264, -3.299e-9
-0.271, -3.328e-9
-0.278, -3.356e-9
-0.285, -3.383e-9
-0.292, -3.411e-9
-0.299, -3.441e-9
-0.306, -3.471e-9
-0.313, -3.498e-9
-0.320, -3.525e-9
-0.327, -3.554e-9
-0.334, -3.586e-9
-0.341, -3.622e-9
-0.348, -3.655e-9
-0.355, -3.692e-9
-0.362, -3.726e-9
-0.369, -3.759e-9
-0.376, -3.793e-9
-0.383, -3.831e-9
-0.390, -3.868e-9
-0.397, -3.908e-9
-0.404, -3.950e-9
-0.411, -3.991e-9
-0.418, -4.030e-9
-0.425, -4.073e-9
-0.432, -4.121e-9
-0.439, -4.169e-9
-0.446, -4.217e-9
-0.453, -4.262e-9
-0.460, -4.315e-9
-0.467, -4.362e-9
-0.474, -4.415e-9
-0.481, -4.473e-9
-0.488, -4.527e-9
-0.495, -4.586e-9
-0.499, -4.622e-9