File: Fig 4/Fig 3b CV surface light/CV_surface_light_9.csv
Sept. 26, 2024   14:55:57
Cyclic Voltammetry
File: c:\users\secm\desktop\data\lmxlm2\+12 2319-1\26-09-2024 - lamp inside cage\region 2\+12 2319-1 fto cv_cells_light_surface_20_9.csv
Data Source:  Experiment
Instrument Model:  CHI920C
Ref. Electrode:
Header:
Note:

Init E (V) = -0.5
High E (V) = 0.5
Low E (V) = -0.5
Init P/N = P
Scan Rate (V/s) = 0.05
Segment = 2
Sample Interval (V) = 0.001
Quiet Time (sec) = 10
Sensitivity (A/V) = 1e-7

Results:

Channel 1:
Segment 1:
Ep = 0.134V
ip = 1.358e-8A
Ah = 6.244e-9C

Segment 2:

Potential/V, Current/A

-0.500, -1.815e-9
-0.493, -1.493e-9
-0.486, -1.352e-9
-0.479, -1.243e-9
-0.472, -1.146e-9
-0.465, -1.062e-9
-0.458, -9.800e-10
-0.451, -9.081e-10
-0.444, -8.412e-10
-0.437, -7.799e-10
-0.430, -7.175e-10
-0.423, -6.591e-10
-0.416, -6.032e-10
-0.409, -5.498e-10
-0.402, -4.915e-10
-0.395, -4.396e-10
-0.388, -3.880e-10
-0.381, -3.426e-10
-0.374, -2.956e-10
-0.367, -2.434e-10
-0.360, -1.951e-10
-0.353, -1.532e-10
-0.346, -1.088e-10
-0.339, -6.664e-11
-0.332, -1.936e-11
-0.325, 2.821e-11
-0.318, 6.798e-11
-0.311, 1.082e-10
-0.304, 1.492e-10
-0.297, 1.883e-10
-0.290, 2.305e-10
-0.283, 2.689e-10
-0.276, 3.081e-10
-0.269, 3.456e-10
-0.262, 3.843e-10
-0.255, 4.186e-10
-0.248, 4.603e-10
-0.241, 5.016e-10
-0.234, 5.390e-10
-0.227, 5.754e-10
-0.220, 6.108e-10
-0.213, 6.450e-10
-0.206, 6.772e-10
-0.199, 7.134e-10
-0.192, 7.472e-10
-0.185, 7.813e-10
-0.178, 8.125e-10
-0.171, 8.473e-10
-0.164, 8.825e-10
-0.157, 9.146e-10
-0.150, 9.501e-10
-0.143, 9.834e-10
-0.136, 1.015e-9
-0.129, 1.049e-9
-0.122, 1.083e-9
-0.115, 1.114e-9
-0.108, 1.151e-9
-0.101, 1.194e-9
-0.094, 1.231e-9
-0.087, 1.269e-9
-0.080, 1.307e-9
-0.073, 1.353e-9
-0.066, 1.400e-9
-0.059, 1.449e-9
-0.052, 1.498e-9
-0.045, 1.548e-9
-0.038, 1.604e-9
-0.031, 1.664e-9
-0.024, 1.728e-9
-0.017, 1.794e-9
-0.010, 1.865e-9
-0.003, 1.942e-9
0.004, 2.019e-9
0.011, 2.106e-9
0.018, 2.200e-9
0.025, 2.299e-9
0.032, 2.409e-9
0.039, 2.521e-9
0.046, 2.652e-9
0.053, 2.797e-9
0.060, 2.951e-9
0.067, 3.125e-9
0.074, 3.328e-9
0.081, 3.556e-9
0.088, 3.818e-9
0.095, 4.113e-9
0.102, 4.552e-9
0.109, 5.648e-9
0.116, 7.386e-9
0.123, 9.017e-9
0.130, 1.321e-8
0.137, 1.395e-8
0.144, 7.190e-9
0.151, 5.097e-9
0.158, 4.562e-9
0.165, 4.357e-9
0.172, 4.271e-9
0.179, 4.232e-9
0.186, 4.223e-9
0.193, 4.226e-9
0.200, 4.244e-9
0.207, 4.260e-9
0.214, 4.286e-9
0.221, 4.316e-9
0.228, 4.350e-9
0.235, 4.390e-9
0.242, 4.425e-9
0.249, 4.462e-9
0.256, 4.500e-9
0.263, 4.541e-9
0.270, 4.581e-9
0.277, 4.625e-9
0.284, 4.666e-9
0.291, 4.703e-9
0.298, 4.743e-9
0.305, 4.782e-9
0.312, 4.827e-9
0.319, 4.867e-9
0.326, 4.904e-9
0.333, 4.938e-9
0.340, 4.975e-9
0.347, 5.006e-9
0.354, 5.039e-9
0.361, 5.072e-9
0.368, 5.103e-9
0.375, 5.128e-9
0.382, 5.159e-9
0.389, 5.184e-9
0.396, 5.210e-9
0.403, 5.233e-9
0.410, 5.241e-9
0.417, 5.280e-9
0.424, 5.303e-9
0.431, 5.333e-9
0.438, 5.359e-9
0.445, 5.383e-9
0.452, 5.409e-9
0.459, 5.439e-9
0.466, 5.468e-9
0.473, 5.503e-9
0.480, 5.534e-9
0.487, 5.571e-9
0.494, 5.611e-9
0.499, 5.155e-9
0.492, 4.256e-9
0.485, 3.827e-9
0.478, 3.530e-9
0.471, 3.294e-9
0.464, 3.097e-9
0.457, 2.934e-9
0.450, 2.786e-9
0.443, 2.643e-9
0.436, 2.517e-9
0.429, 2.396e-9
0.422, 2.281e-9
0.415, 2.169e-9
0.408, 2.071e-9
0.401, 1.964e-9
0.394, 1.860e-9
0.387, 1.759e-9
0.380, 1.663e-9
0.373, 1.570e-9
0.366, 1.481e-9
0.359, 1.388e-9
0.352, 1.298e-9
0.345, 1.216e-9
0.338, 1.129e-9
0.331, 1.051e-9
0.324, 9.729e-10
0.317, 8.945e-10
0.310, 8.163e-10
0.303, 7.420e-10
0.296, 6.700e-10
0.289, 6.009e-10
0.282, 5.325e-10
0.275, 4.606e-10
0.268, 3.943e-10
0.261, 3.338e-10
0.254, 2.763e-10
0.247, 2.156e-10
0.240, 1.588e-10
0.233, 1.080e-10
0.226, 5.619e-11
0.219, 6.239e-13
0.212, -5.280e-11
0.205, -1.003e-10
0.198, -1.501e-10
0.191, -1.997e-10
0.184, -2.504e-10
0.177, -3.047e-10
0.170, -3.512e-10
0.163, -4.007e-10
0.156, -4.526e-10
0.149, -5.105e-10
0.142, -5.673e-10
0.135, -6.212e-10
0.128, -6.806e-10
0.121, -7.377e-10
0.114, -8.001e-10
0.107, -8.591e-10
0.100, -9.267e-10
0.093, -9.947e-10
0.086, -1.067e-9
0.079, -1.138e-9
0.072, -1.213e-9
0.065, -1.297e-9
0.058, -1.376e-9
0.051, -1.461e-9
0.044, -1.555e-9
0.037, -1.644e-9
0.030, -1.740e-9
0.023, -1.836e-9
0.016, -1.936e-9
0.009, -2.033e-9
0.002, -2.129e-9
-0.005, -2.218e-9
-0.012, -2.301e-9
-0.019, -2.383e-9
-0.026, -2.459e-9
-0.033, -2.544e-9
-0.040, -2.641e-9
-0.047, -2.755e-9
-0.054, -2.832e-9
-0.061, -2.799e-9
-0.068, -2.752e-9
-0.075, -2.751e-9
-0.082, -2.760e-9
-0.089, -2.780e-9
-0.096, -2.820e-9
-0.103, -2.822e-9
-0.110, -2.833e-9
-0.117, -2.829e-9
-0.124, -2.933e-9
-0.131, -2.885e-9
-0.138, -2.861e-9
-0.145, -2.867e-9
-0.152, -2.873e-9
-0.159, -2.890e-9
-0.166, -2.884e-9
-0.173, -2.914e-9
-0.180, -2.906e-9
-0.187, -2.907e-9
-0.194, -2.928e-9
-0.201, -2.949e-9
-0.208, -2.932e-9
-0.215, -2.943e-9
-0.222, -2.962e-9
-0.229, -2.970e-9
-0.236, -2.986e-9
-0.243, -3.010e-9
-0.250, -3.000e-9
-0.257, -3.014e-9
-0.264, -3.031e-9
-0.271, -3.059e-9
-0.278, -3.070e-9
-0.285, -3.088e-9
-0.292, -3.113e-9
-0.299, -3.119e-9
-0.306, -3.133e-9
-0.313, -3.155e-9
-0.320, -3.176e-9
-0.327, -3.227e-9
-0.334, -3.218e-9
-0.341, -3.239e-9
-0.348, -3.258e-9
-0.355, -3.285e-9
-0.362, -3.302e-9
-0.369, -3.336e-9
-0.376, -3.365e-9
-0.383, -3.381e-9
-0.390, -3.404e-9
-0.397, -3.427e-9
-0.404, -3.455e-9
-0.411, -3.491e-9
-0.418, -3.503e-9
-0.425, -3.527e-9
-0.432, -3.555e-9
-0.439, -3.582e-9
-0.446, -3.613e-9
-0.453, -3.643e-9
-0.460, -3.677e-9
-0.467, -3.714e-9
-0.474, -3.740e-9
-0.481, -3.774e-9
-0.488, -3.807e-9
-0.495, -3.841e-9
-0.499, -3.862e-9