File: Fig 4/Fig 3b CV surface light/CV_surface_light_5.csv
Sept. 26, 2024   14:51:21
Cyclic Voltammetry
File: c:\users\secm\desktop\data\lmxlm2\+12 2319-1\26-09-2024 - lamp inside cage\region 2\+12 2319-1 fto cv_cells_light_surface_20_5.csv
Data Source:  Experiment
Instrument Model:  CHI920C
Ref. Electrode:
Header:
Note:

Init E (V) = -0.5
High E (V) = 0.5
Low E (V) = -0.5
Init P/N = P
Scan Rate (V/s) = 0.05
Segment = 2
Sample Interval (V) = 0.001
Quiet Time (sec) = 10
Sensitivity (A/V) = 1e-7

Results:

Channel 1:
Segment 1:
Ep = 0.132V
ip = 3.261e-9A
Ah = 3.230e-9C

Segment 2:

Potential/V, Current/A

-0.500, -1.951e-9
-0.493, -1.632e-9
-0.486, -1.488e-9
-0.479, -1.370e-9
-0.472, -1.277e-9
-0.465, -1.184e-9
-0.458, -1.105e-9
-0.451, -1.034e-9
-0.444, -9.576e-10
-0.437, -8.917e-10
-0.430, -8.309e-10
-0.423, -7.739e-10
-0.416, -7.122e-10
-0.409, -6.585e-10
-0.402, -6.047e-10
-0.395, -5.520e-10
-0.388, -4.939e-10
-0.381, -4.445e-10
-0.374, -3.938e-10
-0.367, -3.468e-10
-0.360, -3.034e-10
-0.353, -2.506e-10
-0.346, -2.036e-10
-0.339, -1.590e-10
-0.332, -1.146e-10
-0.325, -7.190e-11
-0.318, -2.784e-11
-0.311, 2.032e-11
-0.304, 6.350e-11
-0.297, 1.029e-10
-0.290, 1.442e-10
-0.283, 1.792e-10
-0.276, 2.249e-10
-0.269, 2.629e-10
-0.262, 3.037e-10
-0.255, 3.424e-10
-0.248, 3.804e-10
-0.241, 4.152e-10
-0.234, 4.559e-10
-0.227, 4.994e-10
-0.220, 5.373e-10
-0.213, 5.735e-10
-0.206, 6.101e-10
-0.199, 6.450e-10
-0.192, 6.780e-10
-0.185, 7.149e-10
-0.178, 7.509e-10
-0.171, 7.855e-10
-0.164, 8.199e-10
-0.157, 8.566e-10
-0.150, 8.901e-10
-0.143, 9.274e-10
-0.136, 9.643e-10
-0.129, 9.995e-10
-0.122, 1.034e-9
-0.115, 1.070e-9
-0.108, 1.109e-9
-0.101, 1.148e-9
-0.094, 1.186e-9
-0.087, 1.229e-9
-0.080, 1.272e-9
-0.073, 1.316e-9
-0.066, 1.360e-9
-0.059, 1.413e-9
-0.052, 1.465e-9
-0.045, 1.516e-9
-0.038, 1.568e-9
-0.031, 1.624e-9
-0.024, 1.688e-9
-0.017, 1.751e-9
-0.010, 1.819e-9
-0.003, 1.891e-9
0.004, 1.966e-9
0.011, 2.045e-9
0.018, 2.125e-9
0.025, 2.217e-9
0.032, 2.313e-9
0.039, 2.414e-9
0.046, 2.525e-9
0.053, 2.640e-9
0.060, 2.779e-9
0.067, 2.918e-9
0.074, 3.072e-9
0.081, 3.250e-9
0.088, 3.437e-9
0.095, 3.641e-9
0.102, 3.869e-9
0.109, 4.203e-9
0.116, 4.632e-9
0.123, 5.144e-9
0.130, 5.591e-9
0.137, 5.493e-9
0.144, 4.862e-9
0.151, 4.398e-9
0.158, 4.193e-9
0.165, 4.093e-9
0.172, 4.055e-9
0.179, 4.047e-9
0.186, 4.056e-9
0.193, 4.074e-9
0.200, 4.105e-9
0.207, 4.138e-9
0.214, 4.179e-9
0.221, 4.217e-9
0.228, 4.257e-9
0.235, 4.298e-9
0.242, 4.338e-9
0.249, 4.382e-9
0.256, 4.427e-9
0.263, 4.470e-9
0.270, 4.517e-9
0.277, 4.562e-9
0.284, 4.608e-9
0.291, 4.654e-9
0.298, 4.695e-9
0.305, 4.737e-9
0.312, 4.785e-9
0.319, 4.826e-9
0.326, 4.871e-9
0.333, 4.907e-9
0.340, 4.946e-9
0.347, 4.985e-9
0.354, 5.024e-9
0.361, 5.059e-9
0.368, 5.093e-9
0.375, 5.127e-9
0.382, 5.159e-9
0.389, 5.188e-9
0.396, 5.217e-9
0.403, 5.245e-9
0.410, 5.253e-9
0.417, 5.296e-9
0.424, 5.323e-9
0.431, 5.354e-9
0.438, 5.377e-9
0.445, 5.405e-9
0.452, 5.430e-9
0.459, 5.463e-9
0.466, 5.493e-9
0.473, 5.522e-9
0.480, 5.553e-9
0.487, 5.591e-9
0.494, 5.631e-9
0.499, 5.193e-9
0.492, 4.316e-9
0.485, 3.899e-9
0.478, 3.596e-9
0.471, 3.365e-9
0.464, 3.171e-9
0.457, 3.004e-9
0.450, 2.850e-9
0.443, 2.714e-9
0.436, 2.583e-9
0.429, 2.463e-9
0.422, 2.352e-9
0.415, 2.237e-9
0.408, 2.136e-9
0.401, 2.033e-9
0.394, 1.934e-9
0.387, 1.835e-9
0.380, 1.740e-9
0.373, 1.646e-9
0.366, 1.559e-9
0.359, 1.473e-9
0.352, 1.385e-9
0.345, 1.303e-9
0.338, 1.220e-9
0.331, 1.143e-9
0.324, 1.070e-9
0.317, 9.964e-10
0.310, 9.248e-10
0.303, 8.512e-10
0.296, 7.822e-10
0.289, 7.185e-10
0.282, 6.530e-10
0.275, 5.933e-10
0.268, 5.299e-10
0.261, 4.643e-10
0.254, 4.037e-10
0.247, 3.497e-10
0.240, 2.949e-10
0.233, 2.408e-10
0.226, 1.850e-10
0.219, 1.364e-10
0.212, 8.504e-11
0.205, 3.630e-11
0.198, -1.994e-11
0.191, -7.551e-11
0.184, -1.257e-10
0.177, -1.746e-10
0.170, -2.271e-10
0.163, -2.830e-10
0.156, -3.381e-10
0.149, -3.885e-10
0.142, -4.432e-10
0.135, -5.009e-10
0.128, -5.624e-10
0.121, -6.189e-10
0.114, -6.764e-10
0.107, -7.365e-10
0.100, -8.017e-10
0.093, -8.578e-10
0.086, -9.200e-10
0.079, -9.843e-10
0.072, -1.054e-9
0.065, -1.117e-9
0.058, -1.179e-9
0.051, -1.250e-9
0.044, -1.315e-9
0.037, -1.379e-9
0.030, -1.446e-9
0.023, -1.516e-9
0.016, -1.580e-9
0.009, -1.641e-9
0.002, -1.699e-9
-0.005, -1.762e-9
-0.012, -1.818e-9
-0.019, -1.878e-9
-0.026, -1.928e-9
-0.033, -1.981e-9
-0.040, -2.028e-9
-0.047, -2.076e-9
-0.054, -2.119e-9
-0.061, -2.158e-9
-0.068, -2.194e-9
-0.075, -2.228e-9
-0.082, -2.264e-9
-0.089, -2.295e-9
-0.096, -2.336e-9
-0.103, -2.362e-9
-0.110, -2.388e-9
-0.117, -2.416e-9
-0.124, -2.436e-9
-0.131, -2.465e-9
-0.138, -2.482e-9
-0.145, -2.505e-9
-0.152, -2.526e-9
-0.159, -2.545e-9
-0.166, -2.565e-9
-0.173, -2.586e-9
-0.180, -2.603e-9
-0.187, -2.624e-9
-0.194, -2.642e-9
-0.201, -2.662e-9
-0.208, -2.680e-9
-0.215, -2.713e-9
-0.222, -2.725e-9
-0.229, -2.746e-9
-0.236, -2.768e-9
-0.243, -2.788e-9
-0.250, -2.812e-9
-0.257, -2.835e-9
-0.264, -2.862e-9
-0.271, -2.887e-9
-0.278, -2.910e-9
-0.285, -2.936e-9
-0.292, -2.959e-9
-0.299, -2.988e-9
-0.306, -3.015e-9
-0.313, -3.042e-9
-0.320, -3.069e-9
-0.327, -3.100e-9
-0.334, -3.124e-9
-0.341, -3.153e-9
-0.348, -3.184e-9
-0.355, -3.215e-9
-0.362, -3.243e-9
-0.369, -3.273e-9
-0.376, -3.304e-9
-0.383, -3.338e-9
-0.390, -3.368e-9
-0.397, -3.399e-9
-0.404, -3.435e-9
-0.411, -3.465e-9
-0.418, -3.494e-9
-0.425, -3.525e-9
-0.432, -3.557e-9
-0.439, -3.590e-9
-0.446, -3.629e-9
-0.453, -3.666e-9
-0.460, -3.707e-9
-0.467, -3.741e-9
-0.474, -3.774e-9
-0.481, -3.816e-9
-0.488, -3.855e-9
-0.495, -3.896e-9
-0.499, -3.922e-9