File: Supplementary Fig 4/Fig S4f Surface CV no cells/CV SURFACE (incubation) (10).txt
Mar. 6, 2025   16:15:29
Cyclic Voltammetry
File: cv surface (incubation) (10).bin
Data Source:  Experiment
Instrument Model:  CHI920C
Ref. Electrode:
Header:
Note:

Init E (V) = -0.5
High E (V) = 0.5
Low E (V) = -0.5
Init P/N = P
Scan Rate (V/s) = 0.05
Segment = 2
Sample Interval (V) = 0.001
Quiet Time (sec) = 10
Sensitivity (A/V) = 1e-7

Results:

Channel 1:
Segment 1:

Segment 2:

Potential/V, Current/A

-0.500, -4.528e-9
-0.493, -4.288e-9
-0.486, -4.089e-9
-0.479, -3.912e-9
-0.472, -3.741e-9
-0.465, -3.561e-9
-0.458, -3.407e-9
-0.451, -3.255e-9
-0.444, -3.124e-9
-0.437, -2.991e-9
-0.430, -2.860e-9
-0.423, -2.721e-9
-0.416, -2.591e-9
-0.409, -2.474e-9
-0.402, -2.353e-9
-0.395, -2.246e-9
-0.388, -2.139e-9
-0.381, -2.031e-9
-0.374, -1.940e-9
-0.367, -1.845e-9
-0.360, -1.756e-9
-0.353, -1.674e-9
-0.346, -1.600e-9
-0.339, -1.518e-9
-0.332, -1.444e-9
-0.325, -1.374e-9
-0.318, -1.305e-9
-0.311, -1.237e-9
-0.304, -1.173e-9
-0.297, -1.111e-9
-0.290, -1.058e-9
-0.283, -1.004e-9
-0.276, -9.417e-10
-0.269, -8.951e-10
-0.262, -8.528e-10
-0.255, -8.067e-10
-0.248, -7.642e-10
-0.241, -7.239e-10
-0.234, -6.838e-10
-0.227, -6.488e-10
-0.220, -6.177e-10
-0.213, -5.852e-10
-0.206, -5.465e-10
-0.199, -5.172e-10
-0.192, -4.835e-10
-0.185, -4.454e-10
-0.178, -4.248e-10
-0.171, -3.951e-10
-0.164, -3.634e-10
-0.157, -3.449e-10
-0.150, -3.164e-10
-0.143, -2.875e-10
-0.136, -2.658e-10
-0.129, -2.343e-10
-0.122, -2.113e-10
-0.115, -1.941e-10
-0.108, -1.696e-10
-0.101, -1.460e-10
-0.094, -1.289e-10
-0.087, -1.039e-10
-0.080, -8.721e-11
-0.073, -7.512e-11
-0.066, -5.065e-11
-0.059, 2.646e-11
-0.052, 2.977e-11
-0.045, 6.668e-12
-0.038, 2.168e-11
-0.031, 5.014e-11
-0.024, 1.082e-10
-0.017, 6.925e-11
-0.010, 7.656e-11
-0.003, 8.729e-11
0.004, 1.020e-10
0.011, 1.215e-10
0.018, 1.279e-10
0.025, 1.587e-10
0.032, 2.018e-10
0.039, 2.126e-10
0.046, 2.180e-10
0.053, 2.270e-10
0.060, 2.207e-10
0.067, 2.176e-10
0.074, 2.332e-10
0.081, 2.386e-10
0.088, 2.407e-10
0.095, 3.014e-10
0.102, 3.580e-10
0.109, 3.388e-10
0.116, 3.813e-10
0.123, 3.840e-10
0.130, 4.772e-10
0.137, 5.497e-10
0.144, 5.953e-10
0.151, 6.675e-10
0.158, 7.702e-10
0.165, 8.769e-10
0.172, 9.463e-10
0.179, 9.831e-10
0.186, 1.009e-9
0.193, 1.044e-9
0.200, 1.072e-9
0.207, 1.138e-9
0.214, 1.238e-9
0.221, 1.252e-9
0.228, 1.262e-9
0.235, 1.290e-9
0.242, 1.340e-9
0.249, 1.354e-9
0.256, 1.372e-9
0.263, 1.408e-9
0.270, 1.421e-9
0.277, 1.447e-9
0.284, 1.469e-9
0.291, 1.488e-9
0.298, 1.510e-9
0.305, 1.549e-9
0.312, 1.567e-9
0.319, 1.597e-9
0.326, 1.619e-9
0.333, 1.649e-9
0.340, 1.689e-9
0.347, 1.727e-9
0.354, 1.773e-9
0.361, 1.815e-9
0.368, 1.852e-9
0.375, 1.894e-9
0.382, 1.962e-9
0.389, 2.010e-9
0.396, 2.037e-9
0.403, 2.078e-9
0.410, 2.120e-9
0.417, 2.167e-9
0.424, 2.213e-9
0.431, 2.248e-9
0.438, 2.281e-9
0.445, 2.344e-9
0.452, 2.369e-9
0.459, 2.411e-9
0.466, 2.482e-9
0.473, 2.520e-9
0.480, 2.556e-9
0.487, 2.586e-9
0.494, 2.632e-9
0.499, 2.569e-9
0.492, 2.336e-9
0.485, 2.208e-9
0.478, 2.094e-9
0.471, 2.018e-9
0.464, 1.948e-9
0.457, 1.874e-9
0.450, 1.803e-9
0.443, 1.743e-9
0.436, 1.690e-9
0.429, 1.627e-9
0.422, 1.580e-9
0.415, 1.531e-9
0.408, 1.480e-9
0.401, 1.429e-9
0.394, 1.385e-9
0.387, 1.326e-9
0.380, 1.285e-9
0.373, 1.240e-9
0.366, 1.190e-9
0.359, 1.145e-9
0.352, 1.096e-9
0.345, 1.053e-9
0.338, 1.011e-9
0.331, 9.675e-10
0.324, 9.173e-10
0.317, 8.806e-10
0.310, 8.382e-10
0.303, 7.914e-10
0.296, 7.604e-10
0.289, 7.194e-10
0.282, 6.739e-10
0.275, 6.445e-10
0.268, 6.116e-10
0.261, 5.679e-10
0.254, 5.389e-10
0.247, 5.062e-10
0.240, 4.604e-10
0.233, 4.260e-10
0.226, 3.993e-10
0.219, 3.689e-10
0.212, 3.356e-10
0.205, 3.103e-10
0.198, 2.817e-10
0.191, 2.471e-10
0.184, 2.241e-10
0.177, 1.921e-10
0.170, 1.613e-10
0.163, 1.414e-10
0.156, 1.159e-10
0.149, 8.407e-11
0.142, 6.262e-11
0.135, 3.581e-11
0.128, 6.083e-12
0.121, -2.111e-11
0.114, -4.636e-11
0.107, -8.126e-11
0.100, -1.023e-10
0.093, -1.236e-10
0.086, -1.526e-10
0.079, -1.778e-10
0.072, -2.028e-10
0.065, -2.288e-10
0.058, -2.630e-10
0.051, -2.864e-10
0.044, -3.170e-10
0.037, -3.481e-10
0.030, -3.679e-10
0.023, -4.019e-10
0.016, -4.352e-10
0.009, -4.609e-10
0.002, -4.976e-10
-0.005, -5.425e-10
-0.012, -5.686e-10
-0.019, -6.086e-10
-0.026, -6.460e-10
-0.033, -6.784e-10
-0.040, -7.243e-10
-0.047, -7.675e-10
-0.054, -8.088e-10
-0.061, -8.520e-10
-0.068, -9.011e-10
-0.075, -9.478e-10
-0.082, -1.000e-9
-0.089, -1.061e-9
-0.096, -1.112e-9
-0.103, -1.167e-9
-0.110, -1.231e-9
-0.117, -1.290e-9
-0.124, -1.345e-9
-0.131, -1.410e-9
-0.138, -1.478e-9
-0.145, -1.544e-9
-0.152, -1.613e-9
-0.159, -1.675e-9
-0.166, -1.743e-9
-0.173, -1.808e-9
-0.180, -1.880e-9
-0.187, -1.946e-9
-0.194, -2.019e-9
-0.201, -2.096e-9
-0.208, -2.161e-9
-0.215, -2.235e-9
-0.222, -2.308e-9
-0.229, -2.387e-9
-0.236, -2.463e-9
-0.243, -2.543e-9
-0.250, -2.620e-9
-0.257, -2.692e-9
-0.264, -2.773e-9
-0.271, -2.868e-9
-0.278, -2.938e-9
-0.285, -3.020e-9
-0.292, -3.106e-9
-0.299, -3.192e-9
-0.306, -3.285e-9
-0.313, -3.364e-9
-0.320, -3.466e-9
-0.327, -3.551e-9
-0.334, -3.645e-9
-0.341, -3.739e-9
-0.348, -3.827e-9
-0.355, -3.909e-9
-0.362, -4.010e-9
-0.369, -4.108e-9
-0.376, -4.206e-9
-0.383, -4.321e-9
-0.390, -4.436e-9
-0.397, -4.538e-9
-0.404, -4.642e-9
-0.411, -4.745e-9
-0.418, -4.873e-9
-0.425, -4.967e-9
-0.432, -5.081e-9
-0.439, -5.197e-9
-0.446, -5.315e-9
-0.453, -5.406e-9
-0.460, -5.518e-9
-0.467, -5.631e-9
-0.474, -5.739e-9
-0.481, -5.851e-9
-0.488, -5.970e-9
-0.495, -6.057e-9
-0.499, -6.113e-9