File: Supplementary Fig 4/Fig S4f Surface CV no cells/CV SURFACE (incubation) (3).txt
Mar. 6, 2025   16:07:37
Cyclic Voltammetry
File: cv surface (incubation) (3).bin
Data Source:  Experiment
Instrument Model:  CHI920C
Ref. Electrode:
Header:
Note:

Init E (V) = -0.5
High E (V) = 0.5
Low E (V) = -0.5
Init P/N = P
Scan Rate (V/s) = 0.05
Segment = 2
Sample Interval (V) = 0.001
Quiet Time (sec) = 10
Sensitivity (A/V) = 1e-7

Results:

Channel 1:
Segment 1:

Segment 2:

Potential/V, Current/A

-0.500, -5.136e-9
-0.493, -4.855e-9
-0.486, -4.655e-9
-0.479, -4.465e-9
-0.472, -4.284e-9
-0.465, -4.121e-9
-0.458, -3.961e-9
-0.451, -3.800e-9
-0.444, -3.654e-9
-0.437, -3.509e-9
-0.430, -3.377e-9
-0.423, -3.235e-9
-0.416, -3.102e-9
-0.409, -2.969e-9
-0.402, -2.845e-9
-0.395, -2.718e-9
-0.388, -2.600e-9
-0.381, -2.487e-9
-0.374, -2.371e-9
-0.367, -2.264e-9
-0.360, -2.153e-9
-0.353, -2.050e-9
-0.346, -1.950e-9
-0.339, -1.851e-9
-0.332, -1.762e-9
-0.325, -1.672e-9
-0.318, -1.585e-9
-0.311, -1.501e-9
-0.304, -1.419e-9
-0.297, -1.336e-9
-0.290, -1.261e-9
-0.283, -1.187e-9
-0.276, -1.115e-9
-0.269, -1.047e-9
-0.262, -9.770e-10
-0.255, -9.127e-10
-0.248, -8.477e-10
-0.241, -7.925e-10
-0.234, -7.308e-10
-0.227, -6.741e-10
-0.220, -6.199e-10
-0.213, -5.639e-10
-0.206, -5.111e-10
-0.199, -4.492e-10
-0.192, -4.034e-10
-0.185, -3.579e-10
-0.178, -3.077e-10
-0.171, -2.566e-10
-0.164, -2.110e-10
-0.157, -1.645e-10
-0.150, -1.240e-10
-0.143, -8.175e-11
-0.136, -3.593e-11
-0.129, 6.960e-12
-0.122, 5.053e-11
-0.115, 8.777e-11
-0.108, 1.250e-10
-0.101, 1.629e-10
-0.094, 1.967e-10
-0.087, 2.348e-10
-0.080, 2.721e-10
-0.073, 3.067e-10
-0.066, 3.327e-10
-0.059, 3.700e-10
-0.052, 4.022e-10
-0.045, 4.288e-10
-0.038, 4.662e-10
-0.031, 5.040e-10
-0.024, 5.284e-10
-0.017, 5.581e-10
-0.010, 5.919e-10
-0.003, 6.145e-10
0.004, 6.431e-10
0.011, 6.689e-10
0.018, 6.938e-10
0.025, 7.236e-10
0.032, 7.454e-10
0.039, 7.711e-10
0.046, 7.949e-10
0.053, 8.236e-10
0.060, 8.430e-10
0.067, 8.692e-10
0.074, 8.881e-10
0.081, 9.133e-10
0.088, 9.411e-10
0.095, 9.558e-10
0.102, 9.831e-10
0.109, 1.004e-9
0.116, 1.019e-9
0.123, 1.044e-9
0.130, 1.063e-9
0.137, 1.077e-9
0.144, 1.113e-9
0.151, 1.142e-9
0.158, 1.164e-9
0.165, 1.184e-9
0.172, 1.208e-9
0.179, 1.235e-9
0.186, 1.263e-9
0.193, 1.279e-9
0.200, 1.303e-9
0.207, 1.335e-9
0.214, 1.370e-9
0.221, 1.411e-9
0.228, 1.455e-9
0.235, 1.496e-9
0.242, 1.521e-9
0.249, 1.558e-9
0.256, 1.594e-9
0.263, 1.627e-9
0.270, 1.676e-9
0.277, 1.713e-9
0.284, 1.746e-9
0.291, 1.793e-9
0.298, 1.840e-9
0.305, 1.868e-9
0.312, 1.913e-9
0.319, 1.954e-9
0.326, 1.986e-9
0.333, 2.023e-9
0.340, 2.062e-9
0.347, 2.107e-9
0.354, 2.139e-9
0.361, 2.193e-9
0.368, 2.225e-9
0.375, 2.258e-9
0.382, 2.302e-9
0.389, 2.338e-9
0.396, 2.378e-9
0.403, 2.416e-9
0.410, 2.451e-9
0.417, 2.486e-9
0.424, 2.519e-9
0.431, 2.566e-9
0.438, 2.588e-9
0.445, 2.617e-9
0.452, 2.664e-9
0.459, 2.694e-9
0.466, 2.738e-9
0.473, 2.767e-9
0.480, 2.796e-9
0.487, 2.831e-9
0.494, 2.851e-9
0.499, 2.775e-9
0.492, 2.486e-9
0.485, 2.306e-9
0.478, 2.179e-9
0.471, 2.071e-9
0.464, 1.965e-9
0.457, 1.868e-9
0.450, 1.782e-9
0.443, 1.695e-9
0.436, 1.618e-9
0.429, 1.544e-9
0.422, 1.462e-9
0.415, 1.392e-9
0.408, 1.332e-9
0.401, 1.261e-9
0.394, 1.199e-9
0.387, 1.137e-9
0.380, 1.083e-9
0.373, 1.027e-9
0.366, 9.705e-10
0.359, 9.172e-10
0.352, 8.694e-10
0.345, 8.093e-10
0.338, 7.677e-10
0.331, 7.209e-10
0.324, 6.668e-10
0.317, 6.309e-10
0.310, 5.918e-10
0.303, 5.392e-10
0.296, 5.012e-10
0.289, 4.557e-10
0.282, 4.092e-10
0.275, 3.737e-10
0.268, 3.387e-10
0.261, 3.037e-10
0.254, 2.663e-10
0.247, 2.276e-10
0.240, 1.964e-10
0.233, 1.625e-10
0.226, 1.294e-10
0.219, 1.047e-10
0.212, 7.081e-11
0.205, 3.708e-11
0.198, 1.086e-11
0.191, -2.180e-11
0.184, -5.143e-11
0.177, -8.389e-11
0.170, -1.081e-10
0.163, -1.365e-10
0.156, -1.663e-10
0.149, -1.896e-10
0.142, -2.159e-10
0.135, -2.508e-10
0.128, -2.762e-10
0.121, -3.019e-10
0.114, -3.341e-10
0.107, -3.550e-10
0.100, -3.799e-10
0.093, -4.095e-10
0.086, -4.363e-10
0.079, -4.625e-10
0.072, -4.887e-10
0.065, -5.236e-10
0.058, -5.572e-10
0.051, -5.807e-10
0.044, -6.111e-10
0.037, -6.456e-10
0.030, -6.734e-10
0.023, -7.078e-10
0.016, -7.472e-10
0.009, -7.823e-10
0.002, -8.171e-10
-0.005, -8.557e-10
-0.012, -8.951e-10
-0.019, -9.378e-10
-0.026, -9.837e-10
-0.033, -1.033e-9
-0.040, -1.078e-9
-0.047, -1.122e-9
-0.054, -1.175e-9
-0.061, -1.232e-9
-0.068, -1.289e-9
-0.075, -1.344e-9
-0.082, -1.402e-9
-0.089, -1.460e-9
-0.096, -1.533e-9
-0.103, -1.593e-9
-0.110, -1.658e-9
-0.117, -1.729e-9
-0.124, -1.793e-9
-0.131, -1.867e-9
-0.138, -1.943e-9
-0.145, -2.017e-9
-0.152, -2.095e-9
-0.159, -2.169e-9
-0.166, -2.250e-9
-0.173, -2.327e-9
-0.180, -2.405e-9
-0.187, -2.493e-9
-0.194, -2.574e-9
-0.201, -2.656e-9
-0.208, -2.740e-9
-0.215, -2.819e-9
-0.222, -2.901e-9
-0.229, -2.978e-9
-0.236, -3.065e-9
-0.243, -3.142e-9
-0.250, -3.226e-9
-0.257, -3.310e-9
-0.264, -3.400e-9
-0.271, -3.482e-9
-0.278, -3.554e-9
-0.285, -3.650e-9
-0.292, -3.737e-9
-0.299, -3.814e-9
-0.306, -3.912e-9
-0.313, -3.998e-9
-0.320, -4.079e-9
-0.327, -4.181e-9
-0.334, -4.266e-9
-0.341, -4.348e-9
-0.348, -4.440e-9
-0.355, -4.537e-9
-0.362, -4.645e-9
-0.369, -4.753e-9
-0.376, -4.868e-9
-0.383, -4.967e-9
-0.390, -5.074e-9
-0.397, -5.184e-9
-0.404, -5.286e-9
-0.411, -5.388e-9
-0.418, -5.493e-9
-0.425, -5.593e-9
-0.432, -5.702e-9
-0.439, -5.794e-9
-0.446, -5.897e-9
-0.453, -5.998e-9
-0.460, -6.111e-9
-0.467, -6.209e-9
-0.474, -6.307e-9
-0.481, -6.420e-9
-0.488, -6.517e-9
-0.495, -6.629e-9
-0.499, -6.690e-9