File: Supplementary Fig 4/Fig S4f Surface CV no cells/CV SURFACE (incubation) (8).txt
Mar. 6, 2025   16:13:15
Cyclic Voltammetry
File: cv surface (incubation) (8).bin
Data Source:  Experiment
Instrument Model:  CHI920C
Ref. Electrode:
Header:
Note:

Init E (V) = -0.5
High E (V) = 0.5
Low E (V) = -0.5
Init P/N = P
Scan Rate (V/s) = 0.05
Segment = 2
Sample Interval (V) = 0.001
Quiet Time (sec) = 10
Sensitivity (A/V) = 1e-7

Results:

Channel 1:
Segment 1:

Segment 2:

Potential/V, Current/A

-0.500, -4.526e-9
-0.493, -4.276e-9
-0.486, -4.077e-9
-0.479, -3.905e-9
-0.472, -3.741e-9
-0.465, -3.567e-9
-0.458, -3.413e-9
-0.451, -3.269e-9
-0.444, -3.126e-9
-0.437, -2.979e-9
-0.430, -2.848e-9
-0.423, -2.723e-9
-0.416, -2.593e-9
-0.409, -2.472e-9
-0.402, -2.348e-9
-0.395, -2.240e-9
-0.388, -2.133e-9
-0.381, -2.029e-9
-0.374, -1.935e-9
-0.367, -1.843e-9
-0.360, -1.761e-9
-0.353, -1.675e-9
-0.346, -1.602e-9
-0.339, -1.522e-9
-0.332, -1.447e-9
-0.325, -1.378e-9
-0.318, -1.308e-9
-0.311, -1.244e-9
-0.304, -1.184e-9
-0.297, -1.116e-9
-0.290, -1.065e-9
-0.283, -1.014e-9
-0.276, -9.492e-10
-0.269, -9.011e-10
-0.262, -8.521e-10
-0.255, -8.091e-10
-0.248, -7.660e-10
-0.241, -7.185e-10
-0.234, -6.803e-10
-0.227, -6.380e-10
-0.220, -6.009e-10
-0.213, -5.596e-10
-0.206, -5.219e-10
-0.199, -4.832e-10
-0.192, -4.417e-10
-0.185, -4.071e-10
-0.178, -3.752e-10
-0.171, -3.412e-10
-0.164, -3.201e-10
-0.157, -2.842e-10
-0.150, -2.464e-10
-0.143, -2.219e-10
-0.136, -1.841e-10
-0.129, -1.627e-10
-0.122, -1.418e-10
-0.115, -1.141e-10
-0.108, -8.808e-11
-0.101, -6.644e-11
-0.094, -3.925e-11
-0.087, -8.442e-12
-0.080, 9.982e-12
-0.073, 3.094e-11
-0.066, 5.648e-11
-0.059, 8.046e-11
-0.052, 1.041e-10
-0.045, 1.407e-10
-0.038, 1.439e-10
-0.031, 1.556e-10
-0.024, 1.709e-10
-0.017, 2.038e-10
-0.010, 2.242e-10
-0.003, 2.284e-10
0.004, 2.434e-10
0.011, 2.667e-10
0.018, 2.717e-10
0.025, 3.105e-10
0.032, 3.043e-10
0.039, 3.365e-10
0.046, 3.718e-10
0.053, 3.821e-10
0.060, 4.292e-10
0.067, 4.581e-10
0.074, 6.459e-10
0.081, 6.706e-10
0.088, 7.725e-10
0.095, 7.912e-10
0.102, 8.650e-10
0.109, 8.773e-10
0.116, 9.208e-10
0.123, 9.545e-10
0.130, 9.757e-10
0.137, 1.002e-9
0.144, 1.040e-9
0.151, 1.045e-9
0.158, 1.098e-9
0.165, 1.122e-9
0.172, 1.138e-9
0.179, 1.167e-9
0.186, 1.204e-9
0.193, 1.235e-9
0.200, 1.253e-9
0.207, 1.281e-9
0.214, 1.309e-9
0.221, 1.318e-9
0.228, 1.343e-9
0.235, 1.358e-9
0.242, 1.402e-9
0.249, 1.421e-9
0.256, 1.444e-9
0.263, 1.474e-9
0.270, 1.501e-9
0.277, 1.538e-9
0.284, 1.568e-9
0.291, 1.606e-9
0.298, 1.640e-9
0.305, 1.687e-9
0.312, 1.725e-9
0.319, 1.762e-9
0.326, 1.803e-9
0.333, 1.838e-9
0.340, 1.876e-9
0.347, 1.916e-9
0.354, 1.946e-9
0.361, 1.992e-9
0.368, 2.035e-9
0.375, 2.075e-9
0.382, 2.125e-9
0.389, 2.163e-9
0.396, 2.211e-9
0.403, 2.248e-9
0.410, 2.274e-9
0.417, 2.312e-9
0.424, 2.351e-9
0.431, 2.400e-9
0.438, 2.443e-9
0.445, 2.482e-9
0.452, 2.516e-9
0.459, 2.563e-9
0.466, 2.607e-9
0.473, 2.651e-9
0.480, 2.681e-9
0.487, 2.719e-9
0.494, 2.756e-9
0.499, 2.679e-9
0.492, 2.434e-9
0.485, 2.264e-9
0.478, 2.147e-9
0.471, 2.052e-9
0.464, 1.965e-9
0.457, 1.890e-9
0.450, 1.823e-9
0.443, 1.749e-9
0.436, 1.687e-9
0.429, 1.629e-9
0.422, 1.561e-9
0.415, 1.506e-9
0.408, 1.460e-9
0.401, 1.391e-9
0.394, 1.341e-9
0.387, 1.287e-9
0.380, 1.230e-9
0.373, 1.179e-9
0.366, 1.124e-9
0.359, 1.078e-9
0.352, 1.031e-9
0.345, 9.807e-10
0.338, 9.346e-10
0.331, 8.850e-10
0.324, 8.377e-10
0.317, 7.953e-10
0.310, 7.543e-10
0.303, 7.080e-10
0.296, 6.695e-10
0.289, 6.312e-10
0.282, 5.934e-10
0.275, 5.560e-10
0.268, 5.230e-10
0.261, 4.810e-10
0.254, 4.469e-10
0.247, 4.081e-10
0.240, 3.770e-10
0.233, 3.451e-10
0.226, 3.140e-10
0.219, 2.875e-10
0.212, 2.530e-10
0.205, 2.253e-10
0.198, 1.953e-10
0.191, 1.583e-10
0.184, 1.392e-10
0.177, 1.148e-10
0.170, 8.017e-11
0.163, 5.219e-11
0.156, 3.153e-11
0.149, -1.521e-12
0.142, -3.135e-11
0.135, -5.465e-11
0.128, -8.643e-11
0.121, -1.102e-10
0.114, -1.317e-10
0.107, -1.587e-10
0.100, -1.865e-10
0.093, -2.094e-10
0.086, -2.358e-10
0.079, -2.655e-10
0.072, -2.936e-10
0.065, -3.201e-10
0.058, -3.457e-10
0.051, -3.688e-10
0.044, -3.996e-10
0.037, -4.240e-10
0.030, -4.515e-10
0.023, -4.864e-10
0.016, -5.191e-10
0.009, -5.512e-10
0.002, -5.895e-10
-0.005, -6.230e-10
-0.012, -6.467e-10
-0.019, -6.939e-10
-0.026, -7.284e-10
-0.033, -7.642e-10
-0.040, -8.110e-10
-0.047, -8.511e-10
-0.054, -8.905e-10
-0.061, -9.373e-10
-0.068, -9.881e-10
-0.075, -1.040e-9
-0.082, -1.086e-9
-0.089, -1.144e-9
-0.096, -1.197e-9
-0.103, -1.256e-9
-0.110, -1.320e-9
-0.117, -1.373e-9
-0.124, -1.434e-9
-0.131, -1.507e-9
-0.138, -1.569e-9
-0.145, -1.632e-9
-0.152, -1.705e-9
-0.159, -1.776e-9
-0.166, -1.840e-9
-0.173, -1.918e-9
-0.180, -1.991e-9
-0.187, -2.057e-9
-0.194, -2.139e-9
-0.201, -2.216e-9
-0.208, -2.291e-9
-0.215, -2.366e-9
-0.222, -2.441e-9
-0.229, -2.518e-9
-0.236, -2.588e-9
-0.243, -2.665e-9
-0.250, -2.751e-9
-0.257, -2.830e-9
-0.264, -2.907e-9
-0.271, -2.988e-9
-0.278, -3.069e-9
-0.285, -3.145e-9
-0.292, -3.234e-9
-0.299, -3.318e-9
-0.306, -3.407e-9
-0.313, -3.492e-9
-0.320, -3.573e-9
-0.327, -3.670e-9
-0.334, -3.757e-9
-0.341, -3.846e-9
-0.348, -3.943e-9
-0.355, -4.030e-9
-0.362, -4.132e-9
-0.369, -4.244e-9
-0.376, -4.349e-9
-0.383, -4.448e-9
-0.390, -4.565e-9
-0.397, -4.677e-9
-0.404, -4.770e-9
-0.411, -4.889e-9
-0.418, -4.984e-9
-0.425, -5.082e-9
-0.432, -5.199e-9
-0.439, -5.308e-9
-0.446, -5.407e-9
-0.453, -5.521e-9
-0.460, -5.635e-9
-0.467, -5.728e-9
-0.474, -5.824e-9
-0.481, -5.932e-9
-0.488, -6.045e-9
-0.495, -6.150e-9
-0.499, -6.202e-9