File: Supplementary Fig 4/Fig S4f Surface CV no cells/CV SURFACE (incubation) (4).txt
Mar. 6, 2025   16:08:43
Cyclic Voltammetry
File: cv surface (incubation) (4).bin
Data Source:  Experiment
Instrument Model:  CHI920C
Ref. Electrode:
Header:
Note:

Init E (V) = -0.5
High E (V) = 0.5
Low E (V) = -0.5
Init P/N = P
Scan Rate (V/s) = 0.05
Segment = 2
Sample Interval (V) = 0.001
Quiet Time (sec) = 10
Sensitivity (A/V) = 1e-7

Results:

Channel 1:
Segment 1:

Segment 2:

Potential/V, Current/A

-0.500, -5.091e-9
-0.493, -4.812e-9
-0.486, -4.590e-9
-0.479, -4.403e-9
-0.472, -4.236e-9
-0.465, -4.057e-9
-0.458, -3.906e-9
-0.451, -3.754e-9
-0.444, -3.605e-9
-0.437, -3.469e-9
-0.430, -3.330e-9
-0.423, -3.195e-9
-0.416, -3.061e-9
-0.409, -2.933e-9
-0.402, -2.809e-9
-0.395, -2.685e-9
-0.388, -2.565e-9
-0.381, -2.453e-9
-0.374, -2.340e-9
-0.367, -2.232e-9
-0.360, -2.131e-9
-0.353, -2.023e-9
-0.346, -1.924e-9
-0.339, -1.825e-9
-0.332, -1.734e-9
-0.325, -1.649e-9
-0.318, -1.562e-9
-0.311, -1.475e-9
-0.304, -1.397e-9
-0.297, -1.318e-9
-0.290, -1.240e-9
-0.283, -1.168e-9
-0.276, -1.098e-9
-0.269, -1.028e-9
-0.262, -9.604e-10
-0.255, -8.932e-10
-0.248, -8.351e-10
-0.241, -7.819e-10
-0.234, -7.235e-10
-0.227, -6.681e-10
-0.220, -6.076e-10
-0.213, -5.600e-10
-0.206, -5.071e-10
-0.199, -4.489e-10
-0.192, -4.074e-10
-0.185, -3.565e-10
-0.178, -3.099e-10
-0.171, -2.679e-10
-0.164, -2.162e-10
-0.157, -1.711e-10
-0.150, -1.319e-10
-0.143, -9.364e-11
-0.136, -4.958e-11
-0.129, -1.185e-11
-0.122, 2.646e-11
-0.115, 6.272e-11
-0.108, 9.411e-11
-0.101, 1.309e-10
-0.094, 1.649e-10
-0.087, 1.933e-10
-0.080, 2.304e-10
-0.073, 2.645e-10
-0.066, 2.956e-10
-0.059, 3.193e-10
-0.052, 3.505e-10
-0.045, 3.818e-10
-0.038, 4.079e-10
-0.031, 4.355e-10
-0.024, 4.637e-10
-0.017, 5.063e-10
-0.010, 5.311e-10
-0.003, 5.560e-10
0.004, 5.924e-10
0.011, 6.148e-10
0.018, 6.443e-10
0.025, 6.673e-10
0.032, 6.884e-10
0.039, 7.062e-10
0.046, 7.286e-10
0.053, 7.533e-10
0.060, 7.811e-10
0.067, 8.351e-10
0.074, 8.467e-10
0.081, 8.717e-10
0.088, 8.997e-10
0.095, 9.217e-10
0.102, 9.530e-10
0.109, 9.772e-10
0.116, 9.810e-10
0.123, 1.002e-9
0.130, 1.020e-9
0.137, 1.035e-9
0.144, 1.056e-9
0.151, 1.079e-9
0.158, 1.098e-9
0.165, 1.133e-9
0.172, 1.151e-9
0.179, 1.176e-9
0.186, 1.205e-9
0.193, 1.250e-9
0.200, 1.284e-9
0.207, 1.304e-9
0.214, 1.338e-9
0.221, 1.360e-9
0.228, 1.398e-9
0.235, 1.459e-9
0.242, 1.494e-9
0.249, 1.532e-9
0.256, 1.575e-9
0.263, 1.613e-9
0.270, 1.643e-9
0.277, 1.687e-9
0.284, 1.732e-9
0.291, 1.765e-9
0.298, 1.802e-9
0.305, 1.852e-9
0.312, 1.887e-9
0.319, 1.936e-9
0.326, 1.970e-9
0.333, 2.004e-9
0.340, 2.040e-9
0.347, 2.081e-9
0.354, 2.117e-9
0.361, 2.158e-9
0.368, 2.210e-9
0.375, 2.251e-9
0.382, 2.281e-9
0.389, 2.307e-9
0.396, 2.351e-9
0.403, 2.385e-9
0.410, 2.418e-9
0.417, 2.460e-9
0.424, 2.491e-9
0.431, 2.543e-9
0.438, 2.579e-9
0.445, 2.612e-9
0.452, 2.653e-9
0.459, 2.697e-9
0.466, 2.738e-9
0.473, 2.769e-9
0.480, 2.796e-9
0.487, 2.825e-9
0.494, 2.869e-9
0.499, 2.788e-9
0.492, 2.497e-9
0.485, 2.320e-9
0.478, 2.178e-9
0.471, 2.068e-9
0.464, 1.977e-9
0.457, 1.879e-9
0.450, 1.794e-9
0.443, 1.717e-9
0.436, 1.643e-9
0.429, 1.569e-9
0.422, 1.499e-9
0.415, 1.428e-9
0.408, 1.365e-9
0.401, 1.292e-9
0.394, 1.240e-9
0.387, 1.176e-9
0.380, 1.120e-9
0.373, 1.072e-9
0.366, 1.015e-9
0.359, 9.574e-10
0.352, 9.051e-10
0.345, 8.536e-10
0.338, 8.020e-10
0.331, 7.549e-10
0.324, 7.094e-10
0.317, 6.637e-10
0.310, 6.202e-10
0.303, 5.770e-10
0.296, 5.384e-10
0.289, 4.956e-10
0.282, 4.528e-10
0.275, 4.124e-10
0.268, 3.773e-10
0.261, 3.443e-10
0.254, 3.103e-10
0.247, 2.755e-10
0.240, 2.438e-10
0.233, 2.116e-10
0.226, 1.730e-10
0.219, 1.495e-10
0.212, 1.201e-10
0.205, 8.884e-11
0.198, 6.379e-11
0.191, 3.318e-11
0.184, 6.863e-12
0.177, -2.336e-11
0.170, -5.562e-11
0.163, -8.799e-11
0.156, -1.071e-10
0.149, -1.376e-10
0.142, -1.655e-10
0.135, -1.877e-10
0.128, -2.177e-10
0.121, -2.441e-10
0.114, -2.730e-10
0.107, -3.016e-10
0.100, -3.283e-10
0.093, -3.512e-10
0.086, -3.743e-10
0.079, -4.061e-10
0.072, -4.339e-10
0.065, -4.553e-10
0.058, -4.867e-10
0.051, -5.239e-10
0.044, -5.497e-10
0.037, -5.810e-10
0.030, -6.169e-10
0.023, -6.420e-10
0.016, -6.799e-10
0.009, -7.123e-10
0.002, -7.475e-10
-0.005, -7.910e-10
-0.012, -8.226e-10
-0.019, -8.667e-10
-0.026, -9.064e-10
-0.033, -9.469e-10
-0.040, -1.005e-9
-0.047, -1.047e-9
-0.054, -1.095e-9
-0.061, -1.151e-9
-0.068, -1.201e-9
-0.075, -1.262e-9
-0.082, -1.317e-9
-0.089, -1.374e-9
-0.096, -1.437e-9
-0.103, -1.503e-9
-0.110, -1.570e-9
-0.117, -1.637e-9
-0.124, -1.698e-9
-0.131, -1.772e-9
-0.138, -1.841e-9
-0.145, -1.917e-9
-0.152, -1.996e-9
-0.159, -2.066e-9
-0.166, -2.148e-9
-0.173, -2.225e-9
-0.180, -2.302e-9
-0.187, -2.387e-9
-0.194, -2.464e-9
-0.201, -2.548e-9
-0.208, -2.632e-9
-0.215, -2.709e-9
-0.222, -2.792e-9
-0.229, -2.878e-9
-0.236, -2.958e-9
-0.243, -3.043e-9
-0.250, -3.124e-9
-0.257, -3.201e-9
-0.264, -3.286e-9
-0.271, -3.375e-9
-0.278, -3.464e-9
-0.285, -3.537e-9
-0.292, -3.626e-9
-0.299, -3.722e-9
-0.306, -3.792e-9
-0.313, -3.887e-9
-0.320, -3.993e-9
-0.327, -4.068e-9
-0.334, -4.161e-9
-0.341, -4.253e-9
-0.348, -4.346e-9
-0.355, -4.453e-9
-0.362, -4.554e-9
-0.369, -4.677e-9
-0.376, -4.780e-9
-0.383, -4.891e-9
-0.390, -4.994e-9
-0.397, -5.101e-9
-0.404, -5.209e-9
-0.411, -5.314e-9
-0.418, -5.431e-9
-0.425, -5.528e-9
-0.432, -5.616e-9
-0.439, -5.719e-9
-0.446, -5.814e-9
-0.453, -5.936e-9
-0.460, -6.046e-9
-0.467, -6.148e-9
-0.474, -6.251e-9
-0.481, -6.369e-9
-0.488, -6.482e-9
-0.495, -6.571e-9
-0.499, -6.623e-9