File: Supplementary Fig 4/Fig S4f Surface CV no cells/CV SURFACE (incubation) (2).txt
Mar. 6, 2025   16:06:29
Cyclic Voltammetry
File: cv surface (incubation) (2).bin
Data Source:  Experiment
Instrument Model:  CHI920C
Ref. Electrode:
Header:
Note:

Init E (V) = -0.5
High E (V) = 0.5
Low E (V) = -0.5
Init P/N = P
Scan Rate (V/s) = 0.05
Segment = 2
Sample Interval (V) = 0.001
Quiet Time (sec) = 10
Sensitivity (A/V) = 1e-7

Results:

Channel 1:
Segment 1:

Segment 2:

Potential/V, Current/A

-0.500, -5.202e-9
-0.493, -4.923e-9
-0.486, -4.720e-9
-0.479, -4.523e-9
-0.472, -4.351e-9
-0.465, -4.194e-9
-0.458, -4.028e-9
-0.451, -3.875e-9
-0.444, -3.730e-9
-0.437, -3.583e-9
-0.430, -3.451e-9
-0.423, -3.309e-9
-0.416, -3.178e-9
-0.409, -3.051e-9
-0.402, -2.923e-9
-0.395, -2.800e-9
-0.388, -2.683e-9
-0.381, -2.570e-9
-0.374, -2.452e-9
-0.367, -2.348e-9
-0.360, -2.242e-9
-0.353, -2.133e-9
-0.346, -2.034e-9
-0.339, -1.936e-9
-0.332, -1.839e-9
-0.325, -1.750e-9
-0.318, -1.661e-9
-0.311, -1.580e-9
-0.304, -1.495e-9
-0.297, -1.412e-9
-0.290, -1.340e-9
-0.283, -1.262e-9
-0.276, -1.182e-9
-0.269, -1.117e-9
-0.262, -1.046e-9
-0.255, -9.737e-10
-0.248, -9.138e-10
-0.241, -8.486e-10
-0.234, -7.923e-10
-0.227, -7.301e-10
-0.220, -6.724e-10
-0.213, -6.159e-10
-0.206, -5.620e-10
-0.199, -5.040e-10
-0.192, -4.482e-10
-0.185, -3.982e-10
-0.178, -3.512e-10
-0.171, -3.054e-10
-0.164, -2.530e-10
-0.157, -2.062e-10
-0.150, -1.631e-10
-0.143, -1.055e-10
-0.136, -7.882e-11
-0.129, -4.354e-11
-0.122, 3.279e-11
-0.115, 5.463e-11
-0.108, 9.440e-11
-0.101, 1.410e-10
-0.094, 1.687e-10
-0.087, 2.105e-10
-0.080, 2.464e-10
-0.073, 2.840e-10
-0.066, 3.225e-10
-0.059, 3.516e-10
-0.052, 3.892e-10
-0.045, 4.212e-10
-0.038, 4.505e-10
-0.031, 4.949e-10
-0.024, 5.229e-10
-0.017, 5.566e-10
-0.010, 5.881e-10
-0.003, 6.097e-10
0.004, 6.453e-10
0.011, 6.647e-10
0.018, 6.925e-10
0.025, 7.264e-10
0.032, 7.449e-10
0.039, 7.749e-10
0.046, 8.100e-10
0.053, 8.246e-10
0.060, 8.506e-10
0.067, 8.720e-10
0.074, 8.907e-10
0.081, 9.241e-10
0.088, 9.464e-10
0.095, 9.715e-10
0.102, 9.980e-10
0.109, 1.013e-9
0.116, 1.036e-9
0.123, 1.057e-9
0.130, 1.078e-9
0.137, 1.103e-9
0.144, 1.122e-9
0.151, 1.144e-9
0.158, 1.170e-9
0.165, 1.199e-9
0.172, 1.223e-9
0.179, 1.256e-9
0.186, 1.283e-9
0.193, 1.311e-9
0.200, 1.346e-9
0.207, 1.378e-9
0.214, 1.417e-9
0.221, 1.457e-9
0.228, 1.491e-9
0.235, 1.527e-9
0.242, 1.564e-9
0.249, 1.595e-9
0.256, 1.635e-9
0.263, 1.691e-9
0.270, 1.715e-9
0.277, 1.759e-9
0.284, 1.788e-9
0.291, 1.830e-9
0.298, 1.874e-9
0.305, 1.922e-9
0.312, 1.967e-9
0.319, 2.013e-9
0.326, 2.058e-9
0.333, 2.091e-9
0.340, 2.124e-9
0.347, 2.179e-9
0.354, 2.208e-9
0.361, 2.239e-9
0.368, 2.276e-9
0.375, 2.320e-9
0.382, 2.359e-9
0.389, 2.389e-9
0.396, 2.425e-9
0.403, 2.455e-9
0.410, 2.487e-9
0.417, 2.531e-9
0.424, 2.571e-9
0.431, 2.599e-9
0.438, 2.644e-9
0.445, 2.668e-9
0.452, 2.703e-9
0.459, 2.749e-9
0.466, 2.776e-9
0.473, 2.816e-9
0.480, 2.841e-9
0.487, 2.872e-9
0.494, 2.901e-9
0.499, 2.818e-9
0.492, 2.531e-9
0.485, 2.355e-9
0.478, 2.217e-9
0.471, 2.091e-9
0.464, 1.983e-9
0.457, 1.880e-9
0.450, 1.788e-9
0.443, 1.703e-9
0.436, 1.622e-9
0.429, 1.531e-9
0.422, 1.466e-9
0.415, 1.392e-9
0.408, 1.312e-9
0.401, 1.255e-9
0.394, 1.191e-9
0.387, 1.123e-9
0.380, 1.069e-9
0.373, 1.014e-9
0.366, 9.537e-10
0.359, 8.958e-10
0.352, 8.464e-10
0.345, 7.905e-10
0.338, 7.389e-10
0.331, 6.931e-10
0.324, 6.444e-10
0.317, 6.015e-10
0.310, 5.569e-10
0.303, 5.154e-10
0.296, 4.676e-10
0.289, 4.200e-10
0.282, 3.836e-10
0.275, 3.500e-10
0.268, 3.087e-10
0.261, 2.736e-10
0.254, 2.404e-10
0.247, 1.990e-10
0.240, 1.630e-10
0.233, 1.368e-10
0.226, 1.018e-10
0.219, 7.003e-11
0.212, 4.371e-11
0.205, 8.617e-12
0.198, -2.852e-11
0.191, -5.436e-11
0.184, -8.828e-11
0.177, -1.141e-10
0.170, -1.413e-10
0.163, -1.729e-10
0.156, -1.994e-10
0.149, -2.267e-10
0.142, -2.590e-10
0.135, -2.855e-10
0.128, -3.140e-10
0.121, -3.412e-10
0.114, -3.629e-10
0.107, -3.938e-10
0.100, -4.236e-10
0.093, -4.468e-10
0.086, -4.723e-10
0.079, -5.089e-10
0.072, -5.334e-10
0.065, -5.667e-10
0.058, -5.965e-10
0.051, -6.221e-10
0.044, -6.591e-10
0.037, -6.897e-10
0.030, -7.236e-10
0.023, -7.602e-10
0.016, -7.994e-10
0.009, -8.309e-10
0.002, -8.699e-10
-0.005, -9.131e-10
-0.012, -9.548e-10
-0.019, -9.990e-10
-0.026, -1.050e-9
-0.033, -1.102e-9
-0.040, -1.142e-9
-0.047, -1.192e-9
-0.054, -1.256e-9
-0.061, -1.312e-9
-0.068, -1.362e-9
-0.075, -1.425e-9
-0.082, -1.496e-9
-0.089, -1.556e-9
-0.096, -1.620e-9
-0.103, -1.682e-9
-0.110, -1.758e-9
-0.117, -1.826e-9
-0.124, -1.898e-9
-0.131, -1.977e-9
-0.138, -2.048e-9
-0.145, -2.132e-9
-0.152, -2.211e-9
-0.159, -2.288e-9
-0.166, -2.371e-9
-0.173, -2.451e-9
-0.180, -2.536e-9
-0.187, -2.613e-9
-0.194, -2.698e-9
-0.201, -2.780e-9
-0.208, -2.865e-9
-0.215, -2.943e-9
-0.222, -3.027e-9
-0.229, -3.113e-9
-0.236, -3.194e-9
-0.243, -3.274e-9
-0.250, -3.355e-9
-0.257, -3.445e-9
-0.264, -3.515e-9
-0.271, -3.600e-9
-0.278, -3.690e-9
-0.285, -3.765e-9
-0.292, -3.856e-9
-0.299, -3.937e-9
-0.306, -4.021e-9
-0.313, -4.115e-9
-0.320, -4.208e-9
-0.327, -4.284e-9
-0.334, -4.375e-9
-0.341, -4.466e-9
-0.348, -4.548e-9
-0.355, -4.647e-9
-0.362, -4.759e-9
-0.369, -4.864e-9
-0.376, -4.969e-9
-0.383, -5.079e-9
-0.390, -5.189e-9
-0.397, -5.287e-9
-0.404, -5.393e-9
-0.411, -5.497e-9
-0.418, -5.594e-9
-0.425, -5.707e-9
-0.432, -5.804e-9
-0.439, -5.912e-9
-0.446, -6.016e-9
-0.453, -6.125e-9
-0.460, -6.223e-9
-0.467, -6.325e-9
-0.474, -6.436e-9
-0.481, -6.548e-9
-0.488, -6.656e-9
-0.495, -6.751e-9
-0.499, -6.803e-9