File: Supplementary Fig 4/Fig S4f Surface CV no cells/CV SURFACE (incubation) (9).txt
Mar. 6, 2025   16:14:24
Cyclic Voltammetry
File: cv surface (incubation) (9).bin
Data Source:  Experiment
Instrument Model:  CHI920C
Ref. Electrode:
Header:
Note:

Init E (V) = -0.5
High E (V) = 0.5
Low E (V) = -0.5
Init P/N = P
Scan Rate (V/s) = 0.05
Segment = 2
Sample Interval (V) = 0.001
Quiet Time (sec) = 10
Sensitivity (A/V) = 1e-7

Results:

Channel 1:
Segment 1:

Segment 2:

Potential/V, Current/A

-0.500, -4.598e-9
-0.493, -4.349e-9
-0.486, -4.163e-9
-0.479, -3.977e-9
-0.472, -3.816e-9
-0.465, -3.661e-9
-0.458, -3.510e-9
-0.451, -3.376e-9
-0.444, -3.228e-9
-0.437, -3.089e-9
-0.430, -2.948e-9
-0.423, -2.813e-9
-0.416, -2.687e-9
-0.409, -2.547e-9
-0.402, -2.424e-9
-0.395, -2.304e-9
-0.388, -2.192e-9
-0.381, -2.071e-9
-0.374, -1.961e-9
-0.367, -1.865e-9
-0.360, -1.772e-9
-0.353, -1.674e-9
-0.346, -1.607e-9
-0.339, -1.521e-9
-0.332, -1.444e-9
-0.325, -1.374e-9
-0.318, -1.307e-9
-0.311, -1.244e-9
-0.304, -1.175e-9
-0.297, -1.122e-9
-0.290, -1.066e-9
-0.283, -1.007e-9
-0.276, -9.588e-10
-0.269, -9.006e-10
-0.262, -8.573e-10
-0.255, -8.160e-10
-0.248, -7.706e-10
-0.241, -7.266e-10
-0.234, -6.861e-10
-0.227, -6.486e-10
-0.220, -6.109e-10
-0.213, -5.729e-10
-0.206, -5.442e-10
-0.199, -5.037e-10
-0.192, -4.671e-10
-0.185, -4.386e-10
-0.178, -4.045e-10
-0.171, -3.738e-10
-0.164, -3.470e-10
-0.157, -3.255e-10
-0.150, -2.980e-10
-0.143, -2.590e-10
-0.136, -2.366e-10
-0.129, -2.098e-10
-0.122, -1.800e-10
-0.115, -1.631e-10
-0.108, -1.419e-10
-0.101, -1.162e-10
-0.094, -9.579e-11
-0.087, -7.073e-11
-0.080, -3.876e-11
-0.073, -2.131e-11
-0.066, -6.785e-12
-0.059, 4.030e-11
-0.052, 9.079e-11
-0.045, 1.014e-10
-0.038, 8.485e-11
-0.031, 9.499e-11
-0.024, 1.081e-10
-0.017, 1.076e-10
-0.010, 1.265e-10
-0.003, 1.538e-10
0.004, 2.227e-10
0.011, 2.474e-10
0.018, 2.591e-10
0.025, 2.868e-10
0.032, 3.915e-10
0.039, 4.393e-10
0.046, 5.047e-10
0.053, 5.329e-10
0.060, 6.201e-10
0.067, 6.645e-10
0.074, 7.033e-10
0.081, 7.720e-10
0.088, 8.152e-10
0.095, 8.179e-10
0.102, 8.777e-10
0.109, 9.188e-10
0.116, 9.258e-10
0.123, 9.670e-10
0.130, 9.722e-10
0.137, 9.863e-10
0.144, 1.011e-9
0.151, 1.032e-9
0.158, 1.064e-9
0.165, 1.111e-9
0.172, 1.119e-9
0.179, 1.163e-9
0.186, 1.197e-9
0.193, 1.207e-9
0.200, 1.218e-9
0.207, 1.239e-9
0.214, 1.254e-9
0.221, 1.278e-9
0.228, 1.297e-9
0.235, 1.310e-9
0.242, 1.335e-9
0.249, 1.363e-9
0.256, 1.393e-9
0.263, 1.418e-9
0.270, 1.456e-9
0.277, 1.475e-9
0.284, 1.489e-9
0.291, 1.535e-9
0.298, 1.580e-9
0.305, 1.604e-9
0.312, 1.653e-9
0.319, 1.704e-9
0.326, 1.756e-9
0.333, 1.793e-9
0.340, 1.835e-9
0.347, 1.869e-9
0.354, 1.914e-9
0.361, 1.958e-9
0.368, 2.001e-9
0.375, 2.038e-9
0.382, 2.076e-9
0.389, 2.114e-9
0.396, 2.157e-9
0.403, 2.193e-9
0.410, 2.219e-9
0.417, 2.272e-9
0.424, 2.306e-9
0.431, 2.344e-9
0.438, 2.381e-9
0.445, 2.408e-9
0.452, 2.449e-9
0.459, 2.489e-9
0.466, 2.529e-9
0.473, 2.569e-9
0.480, 2.610e-9
0.487, 2.651e-9
0.494, 2.679e-9
0.499, 2.624e-9
0.492, 2.376e-9
0.485, 2.226e-9
0.478, 2.102e-9
0.471, 2.006e-9
0.464, 1.927e-9
0.457, 1.852e-9
0.450, 1.786e-9
0.443, 1.722e-9
0.436, 1.659e-9
0.429, 1.602e-9
0.422, 1.547e-9
0.415, 1.498e-9
0.408, 1.437e-9
0.401, 1.381e-9
0.394, 1.335e-9
0.387, 1.274e-9
0.380, 1.223e-9
0.373, 1.171e-9
0.366, 1.124e-9
0.359, 1.076e-9
0.352, 1.029e-9
0.345, 9.823e-10
0.338, 9.322e-10
0.331, 8.912e-10
0.324, 8.379e-10
0.317, 7.987e-10
0.310, 7.622e-10
0.303, 7.157e-10
0.296, 6.720e-10
0.289, 6.402e-10
0.282, 6.013e-10
0.275, 5.612e-10
0.268, 5.285e-10
0.261, 4.939e-10
0.254, 4.480e-10
0.247, 4.155e-10
0.240, 3.865e-10
0.233, 3.549e-10
0.226, 3.230e-10
0.219, 2.943e-10
0.212, 2.642e-10
0.205, 2.326e-10
0.198, 2.006e-10
0.191, 1.751e-10
0.184, 1.462e-10
0.177, 1.216e-10
0.170, 9.596e-11
0.163, 6.535e-11
0.156, 4.274e-11
0.149, 1.622e-11
0.142, -9.612e-12
0.135, -4.149e-11
0.128, -6.342e-11
0.121, -9.306e-11
0.114, -1.115e-10
0.107, -1.387e-10
0.100, -1.634e-10
0.093, -1.871e-10
0.086, -2.133e-10
0.079, -2.386e-10
0.072, -2.651e-10
0.065, -2.977e-10
0.058, -3.199e-10
0.051, -3.472e-10
0.044, -3.728e-10
0.037, -4.008e-10
0.030, -4.305e-10
0.023, -4.560e-10
0.016, -4.943e-10
0.009, -5.238e-10
0.002, -5.589e-10
-0.005, -5.932e-10
-0.012, -6.263e-10
-0.019, -6.610e-10
-0.026, -6.972e-10
-0.033, -7.405e-10
-0.040, -7.811e-10
-0.047, -8.198e-10
-0.054, -8.640e-10
-0.061, -9.042e-10
-0.068, -9.538e-10
-0.075, -1.009e-9
-0.082, -1.059e-9
-0.089, -1.108e-9
-0.096, -1.163e-9
-0.103, -1.224e-9
-0.110, -1.283e-9
-0.117, -1.340e-9
-0.124, -1.406e-9
-0.131, -1.466e-9
-0.138, -1.532e-9
-0.145, -1.604e-9
-0.152, -1.663e-9
-0.159, -1.732e-9
-0.166, -1.803e-9
-0.173, -1.876e-9
-0.180, -1.940e-9
-0.187, -2.018e-9
-0.194, -2.088e-9
-0.201, -2.156e-9
-0.208, -2.237e-9
-0.215, -2.309e-9
-0.222, -2.383e-9
-0.229, -2.453e-9
-0.236, -2.531e-9
-0.243, -2.610e-9
-0.250, -2.685e-9
-0.257, -2.766e-9
-0.264, -2.852e-9
-0.271, -2.924e-9
-0.278, -3.014e-9
-0.285, -3.097e-9
-0.292, -3.177e-9
-0.299, -3.261e-9
-0.306, -3.348e-9
-0.313, -3.435e-9
-0.320, -3.522e-9
-0.327, -3.612e-9
-0.334, -3.704e-9
-0.341, -3.789e-9
-0.348, -3.876e-9
-0.355, -3.975e-9
-0.362, -4.067e-9
-0.369, -4.172e-9
-0.376, -4.271e-9
-0.383, -4.378e-9
-0.390, -4.481e-9
-0.397, -4.584e-9
-0.404, -4.700e-9
-0.411, -4.814e-9
-0.418, -4.944e-9
-0.425, -5.046e-9
-0.432, -5.158e-9
-0.439, -5.263e-9
-0.446, -5.366e-9
-0.453, -5.465e-9
-0.460, -5.571e-9
-0.467, -5.687e-9
-0.474, -5.784e-9
-0.481, -5.878e-9
-0.488, -5.974e-9
-0.495, -6.083e-9
-0.499, -6.157e-9