File: Supplementary Fig 4/Fig S4f Surface CV no cells/CV SURFACE (incubation) (5).txt
Mar. 6, 2025   16:09:51
Cyclic Voltammetry
File: cv surface (incubation) (5).bin
Data Source:  Experiment
Instrument Model:  CHI920C
Ref. Electrode:
Header:
Note:

Init E (V) = -0.5
High E (V) = 0.5
Low E (V) = -0.5
Init P/N = P
Scan Rate (V/s) = 0.05
Segment = 2
Sample Interval (V) = 0.001
Quiet Time (sec) = 10
Sensitivity (A/V) = 1e-7

Results:

Channel 1:
Segment 1:

Segment 2:

Potential/V, Current/A

-0.500, -4.950e-9
-0.493, -4.689e-9
-0.486, -4.479e-9
-0.479, -4.285e-9
-0.472, -4.118e-9
-0.465, -3.955e-9
-0.458, -3.802e-9
-0.451, -3.639e-9
-0.444, -3.494e-9
-0.437, -3.363e-9
-0.430, -3.216e-9
-0.423, -3.080e-9
-0.416, -2.956e-9
-0.409, -2.833e-9
-0.402, -2.707e-9
-0.395, -2.597e-9
-0.388, -2.485e-9
-0.381, -2.371e-9
-0.374, -2.269e-9
-0.367, -2.167e-9
-0.360, -2.065e-9
-0.353, -1.978e-9
-0.346, -1.883e-9
-0.339, -1.792e-9
-0.332, -1.712e-9
-0.325, -1.626e-9
-0.318, -1.550e-9
-0.311, -1.471e-9
-0.304, -1.394e-9
-0.297, -1.322e-9
-0.290, -1.250e-9
-0.283, -1.186e-9
-0.276, -1.121e-9
-0.269, -1.053e-9
-0.262, -9.948e-10
-0.255, -9.313e-10
-0.248, -8.705e-10
-0.241, -8.242e-10
-0.234, -7.741e-10
-0.227, -7.156e-10
-0.220, -6.705e-10
-0.213, -6.203e-10
-0.206, -5.775e-10
-0.199, -5.299e-10
-0.192, -4.792e-10
-0.185, -4.400e-10
-0.178, -3.967e-10
-0.171, -3.526e-10
-0.164, -3.211e-10
-0.157, -2.780e-10
-0.150, -2.350e-10
-0.143, -2.033e-10
-0.136, -1.667e-10
-0.129, -1.289e-10
-0.122, -9.832e-11
-0.115, -6.839e-11
-0.108, -2.696e-11
-0.101, 9.007e-12
-0.094, 3.845e-11
-0.087, 6.691e-11
-0.080, 9.820e-11
-0.073, 1.237e-10
-0.066, 1.467e-10
-0.059, 1.766e-10
-0.052, 2.020e-10
-0.045, 2.267e-10
-0.038, 2.560e-10
-0.031, 2.875e-10
-0.024, 3.042e-10
-0.017, 3.247e-10
-0.010, 3.731e-10
-0.003, 3.646e-10
0.004, 3.848e-10
0.011, 4.124e-10
0.018, 4.265e-10
0.025, 4.557e-10
0.032, 4.741e-10
0.039, 4.950e-10
0.046, 5.204e-10
0.053, 5.383e-10
0.060, 5.477e-10
0.067, 5.659e-10
0.074, 5.875e-10
0.081, 5.985e-10
0.088, 6.295e-10
0.095, 6.753e-10
0.102, 7.530e-10
0.109, 8.300e-10
0.116, 8.596e-10
0.123, 9.220e-10
0.130, 9.540e-10
0.137, 1.013e-9
0.144, 1.038e-9
0.151, 1.052e-9
0.158, 1.072e-9
0.165, 1.115e-9
0.172, 1.129e-9
0.179, 1.144e-9
0.186, 1.173e-9
0.193, 1.200e-9
0.200, 1.267e-9
0.207, 1.283e-9
0.214, 1.313e-9
0.221, 1.337e-9
0.228, 1.383e-9
0.235, 1.424e-9
0.242, 1.436e-9
0.249, 1.481e-9
0.256, 1.498e-9
0.263, 1.534e-9
0.270, 1.588e-9
0.277, 1.625e-9
0.284, 1.669e-9
0.291, 1.716e-9
0.298, 1.758e-9
0.305, 1.809e-9
0.312, 1.862e-9
0.319, 1.899e-9
0.326, 1.940e-9
0.333, 1.977e-9
0.340, 2.005e-9
0.347, 2.057e-9
0.354, 2.106e-9
0.361, 2.131e-9
0.368, 2.187e-9
0.375, 2.224e-9
0.382, 2.263e-9
0.389, 2.296e-9
0.396, 2.334e-9
0.403, 2.386e-9
0.410, 2.413e-9
0.417, 2.457e-9
0.424, 2.500e-9
0.431, 2.540e-9
0.438, 2.551e-9
0.445, 2.599e-9
0.452, 2.638e-9
0.459, 2.672e-9
0.466, 2.722e-9
0.473, 2.759e-9
0.480, 2.794e-9
0.487, 2.838e-9
0.494, 2.863e-9
0.499, 2.795e-9
0.492, 2.532e-9
0.485, 2.355e-9
0.478, 2.225e-9
0.471, 2.115e-9
0.464, 2.020e-9
0.457, 1.937e-9
0.450, 1.853e-9
0.443, 1.776e-9
0.436, 1.697e-9
0.429, 1.637e-9
0.422, 1.575e-9
0.415, 1.501e-9
0.408, 1.449e-9
0.401, 1.382e-9
0.394, 1.314e-9
0.387, 1.259e-9
0.380, 1.195e-9
0.373, 1.135e-9
0.366, 1.086e-9
0.359, 1.033e-9
0.352, 9.805e-10
0.345, 9.246e-10
0.338, 8.744e-10
0.331, 8.303e-10
0.324, 7.772e-10
0.317, 7.382e-10
0.310, 6.943e-10
0.303, 6.449e-10
0.296, 6.084e-10
0.289, 5.699e-10
0.282, 5.253e-10
0.275, 4.871e-10
0.268, 4.457e-10
0.261, 4.045e-10
0.254, 3.717e-10
0.247, 3.389e-10
0.240, 3.049e-10
0.233, 2.709e-10
0.226, 2.394e-10
0.219, 2.052e-10
0.212, 1.681e-10
0.205, 1.423e-10
0.198, 1.139e-10
0.191, 8.368e-11
0.184, 5.443e-11
0.177, 2.616e-11
0.170, -2.301e-12
0.163, -3.730e-11
0.156, -6.381e-11
0.149, -9.042e-11
0.142, -1.191e-10
0.135, -1.443e-10
0.128, -1.699e-10
0.121, -1.978e-10
0.114, -2.233e-10
0.107, -2.553e-10
0.100, -2.798e-10
0.093, -3.089e-10
0.086, -3.392e-10
0.079, -3.540e-10
0.072, -3.855e-10
0.065, -4.175e-10
0.058, -4.358e-10
0.051, -4.692e-10
0.044, -5.021e-10
0.037, -5.333e-10
0.030, -5.656e-10
0.023, -5.973e-10
0.016, -6.296e-10
0.009, -6.615e-10
0.002, -6.986e-10
-0.005, -7.350e-10
-0.012, -7.749e-10
-0.019, -8.151e-10
-0.026, -8.499e-10
-0.033, -8.904e-10
-0.040, -9.387e-10
-0.047, -9.824e-10
-0.054, -1.035e-9
-0.061, -1.082e-9
-0.068, -1.132e-9
-0.075, -1.190e-9
-0.082, -1.240e-9
-0.089, -1.307e-9
-0.096, -1.363e-9
-0.103, -1.419e-9
-0.110, -1.495e-9
-0.117, -1.555e-9
-0.124, -1.619e-9
-0.131, -1.688e-9
-0.138, -1.757e-9
-0.145, -1.831e-9
-0.152, -1.903e-9
-0.159, -1.978e-9
-0.166, -2.054e-9
-0.173, -2.130e-9
-0.180, -2.213e-9
-0.187, -2.289e-9
-0.194, -2.368e-9
-0.201, -2.453e-9
-0.208, -2.531e-9
-0.215, -2.611e-9
-0.222, -2.690e-9
-0.229, -2.771e-9
-0.236, -2.856e-9
-0.243, -2.932e-9
-0.250, -3.016e-9
-0.257, -3.097e-9
-0.264, -3.180e-9
-0.271, -3.269e-9
-0.278, -3.354e-9
-0.285, -3.441e-9
-0.292, -3.515e-9
-0.299, -3.600e-9
-0.306, -3.696e-9
-0.313, -3.776e-9
-0.320, -3.861e-9
-0.327, -3.963e-9
-0.334, -4.041e-9
-0.341, -4.133e-9
-0.348, -4.227e-9
-0.355, -4.319e-9
-0.362, -4.423e-9
-0.369, -4.528e-9
-0.376, -4.642e-9
-0.383, -4.738e-9
-0.390, -4.846e-9
-0.397, -4.971e-9
-0.404, -5.078e-9
-0.411, -5.189e-9
-0.418, -5.301e-9
-0.425, -5.403e-9
-0.432, -5.501e-9
-0.439, -5.609e-9
-0.446, -5.713e-9
-0.453, -5.822e-9
-0.460, -5.920e-9
-0.467, -6.032e-9
-0.474, -6.151e-9
-0.481, -6.246e-9
-0.488, -6.342e-9
-0.495, -6.447e-9
-0.499, -6.500e-9