File: Supplementary Fig 4/Fig S4f Surface CV no cells/CV SURFACE (incubation) (6).txt
Mar. 6, 2025   16:10:55
Cyclic Voltammetry
File: cv surface (incubation) (6).bin
Data Source:  Experiment
Instrument Model:  CHI920C
Ref. Electrode:
Header:
Note:

Init E (V) = -0.5
High E (V) = 0.5
Low E (V) = -0.5
Init P/N = P
Scan Rate (V/s) = 0.05
Segment = 2
Sample Interval (V) = 0.001
Quiet Time (sec) = 10
Sensitivity (A/V) = 1e-7

Results:

Channel 1:
Segment 1:

Segment 2:

Potential/V, Current/A

-0.500, -4.896e-9
-0.493, -4.616e-9
-0.486, -4.423e-9
-0.479, -4.241e-9
-0.472, -4.061e-9
-0.465, -3.900e-9
-0.458, -3.741e-9
-0.451, -3.585e-9
-0.444, -3.439e-9
-0.437, -3.299e-9
-0.430, -3.167e-9
-0.423, -3.035e-9
-0.416, -2.907e-9
-0.409, -2.785e-9
-0.402, -2.662e-9
-0.395, -2.539e-9
-0.388, -2.425e-9
-0.381, -2.303e-9
-0.374, -2.195e-9
-0.367, -2.101e-9
-0.360, -1.998e-9
-0.353, -1.905e-9
-0.346, -1.810e-9
-0.339, -1.727e-9
-0.332, -1.647e-9
-0.325, -1.565e-9
-0.318, -1.496e-9
-0.311, -1.417e-9
-0.304, -1.340e-9
-0.297, -1.279e-9
-0.290, -1.207e-9
-0.283, -1.140e-9
-0.276, -1.085e-9
-0.269, -1.022e-9
-0.262, -9.597e-10
-0.255, -9.045e-10
-0.248, -8.480e-10
-0.241, -8.016e-10
-0.234, -7.464e-10
-0.227, -6.926e-10
-0.220, -6.500e-10
-0.213, -6.011e-10
-0.206, -5.593e-10
-0.199, -5.128e-10
-0.192, -4.616e-10
-0.185, -4.216e-10
-0.178, -3.815e-10
-0.171, -3.422e-10
-0.164, -3.041e-10
-0.157, -2.608e-10
-0.150, -2.261e-10
-0.143, -1.851e-10
-0.136, -1.497e-10
-0.129, -1.203e-10
-0.122, -8.643e-11
-0.115, -4.948e-11
-0.108, -2.053e-11
-0.101, 1.242e-11
-0.094, 4.966e-11
-0.087, 7.374e-11
-0.080, 9.898e-11
-0.073, 1.349e-10
-0.066, 1.573e-10
-0.059, 1.756e-10
-0.052, 2.086e-10
-0.045, 2.349e-10
-0.038, 2.572e-10
-0.031, 2.800e-10
-0.024, 3.064e-10
-0.017, 3.272e-10
-0.010, 3.482e-10
-0.003, 3.694e-10
0.004, 3.922e-10
0.011, 4.112e-10
0.018, 4.286e-10
0.025, 4.511e-10
0.032, 4.686e-10
0.039, 4.938e-10
0.046, 5.113e-10
0.053, 5.247e-10
0.060, 5.414e-10
0.067, 5.563e-10
0.074, 5.727e-10
0.081, 5.905e-10
0.088, 6.186e-10
0.095, 6.244e-10
0.102, 6.474e-10
0.109, 6.821e-10
0.116, 7.397e-10
0.123, 7.595e-10
0.130, 7.911e-10
0.137, 7.986e-10
0.144, 8.560e-10
0.151, 8.847e-10
0.158, 1.002e-9
0.165, 1.042e-9
0.172, 1.068e-9
0.179, 1.105e-9
0.186, 1.165e-9
0.193, 1.202e-9
0.200, 1.245e-9
0.207, 1.291e-9
0.214, 1.322e-9
0.221, 1.351e-9
0.228, 1.404e-9
0.235, 1.420e-9
0.242, 1.443e-9
0.249, 1.472e-9
0.256, 1.493e-9
0.263, 1.525e-9
0.270, 1.553e-9
0.277, 1.595e-9
0.284, 1.640e-9
0.291, 1.688e-9
0.298, 1.734e-9
0.305, 1.767e-9
0.312, 1.805e-9
0.319, 1.848e-9
0.326, 1.884e-9
0.333, 1.918e-9
0.340, 1.956e-9
0.347, 1.998e-9
0.354, 2.041e-9
0.361, 2.074e-9
0.368, 2.110e-9
0.375, 2.155e-9
0.382, 2.200e-9
0.389, 2.240e-9
0.396, 2.280e-9
0.403, 2.338e-9
0.410, 2.364e-9
0.417, 2.407e-9
0.424, 2.435e-9
0.431, 2.477e-9
0.438, 2.521e-9
0.445, 2.563e-9
0.452, 2.601e-9
0.459, 2.650e-9
0.466, 2.686e-9
0.473, 2.726e-9
0.480, 2.764e-9
0.487, 2.795e-9
0.494, 2.850e-9
0.499, 2.776e-9
0.492, 2.497e-9
0.485, 2.340e-9
0.478, 2.212e-9
0.471, 2.104e-9
0.464, 2.019e-9
0.457, 1.939e-9
0.450, 1.856e-9
0.443, 1.788e-9
0.436, 1.727e-9
0.429, 1.648e-9
0.422, 1.586e-9
0.415, 1.529e-9
0.408, 1.459e-9
0.401, 1.395e-9
0.394, 1.340e-9
0.387, 1.268e-9
0.380, 1.218e-9
0.373, 1.163e-9
0.366, 1.107e-9
0.359, 1.055e-9
0.352, 1.010e-9
0.345, 9.586e-10
0.338, 9.019e-10
0.331, 8.621e-10
0.324, 8.105e-10
0.317, 7.641e-10
0.310, 7.259e-10
0.303, 6.740e-10
0.296, 6.346e-10
0.289, 5.962e-10
0.282, 5.544e-10
0.275, 5.169e-10
0.268, 4.754e-10
0.261, 4.311e-10
0.254, 4.028e-10
0.247, 3.631e-10
0.240, 3.320e-10
0.233, 3.049e-10
0.226, 2.659e-10
0.219, 2.381e-10
0.212, 2.021e-10
0.205, 1.723e-10
0.198, 1.488e-10
0.191, 1.153e-10
0.184, 9.304e-11
0.177, 6.350e-11
0.170, 2.909e-11
0.163, 7.253e-12
0.156, -2.160e-11
0.149, -5.962e-11
0.142, -8.185e-11
0.135, -1.011e-10
0.128, -1.374e-10
0.121, -1.605e-10
0.114, -1.812e-10
0.107, -2.141e-10
0.100, -2.427e-10
0.093, -2.643e-10
0.086, -3.010e-10
0.079, -3.280e-10
0.072, -3.466e-10
0.065, -3.761e-10
0.058, -4.076e-10
0.051, -4.310e-10
0.044, -4.607e-10
0.037, -4.940e-10
0.030, -5.279e-10
0.023, -5.627e-10
0.016, -5.915e-10
0.009, -6.266e-10
0.002, -6.620e-10
-0.005, -6.924e-10
-0.012, -7.356e-10
-0.019, -7.748e-10
-0.026, -8.134e-10
-0.033, -8.540e-10
-0.040, -8.958e-10
-0.047, -9.399e-10
-0.054, -9.908e-10
-0.061, -1.045e-9
-0.068, -1.091e-9
-0.075, -1.143e-9
-0.082, -1.203e-9
-0.089, -1.260e-9
-0.096, -1.319e-9
-0.103, -1.377e-9
-0.110, -1.442e-9
-0.117, -1.507e-9
-0.124, -1.573e-9
-0.131, -1.644e-9
-0.138, -1.704e-9
-0.145, -1.779e-9
-0.152, -1.859e-9
-0.159, -1.926e-9
-0.166, -2.004e-9
-0.173, -2.083e-9
-0.180, -2.157e-9
-0.187, -2.238e-9
-0.194, -2.313e-9
-0.201, -2.395e-9
-0.208, -2.474e-9
-0.215, -2.553e-9
-0.222, -2.630e-9
-0.229, -2.707e-9
-0.236, -2.784e-9
-0.243, -2.874e-9
-0.250, -2.949e-9
-0.257, -3.034e-9
-0.264, -3.120e-9
-0.271, -3.201e-9
-0.278, -3.286e-9
-0.285, -3.368e-9
-0.292, -3.459e-9
-0.299, -3.536e-9
-0.306, -3.615e-9
-0.313, -3.707e-9
-0.320, -3.794e-9
-0.327, -3.879e-9
-0.334, -3.978e-9
-0.341, -4.072e-9
-0.348, -4.158e-9
-0.355, -4.252e-9
-0.362, -4.356e-9
-0.369, -4.459e-9
-0.376, -4.571e-9
-0.383, -4.690e-9
-0.390, -4.787e-9
-0.397, -4.886e-9
-0.404, -5.005e-9
-0.411, -5.101e-9
-0.418, -5.208e-9
-0.425, -5.319e-9
-0.432, -5.423e-9
-0.439, -5.531e-9
-0.446, -5.643e-9
-0.453, -5.743e-9
-0.460, -5.848e-9
-0.467, -5.960e-9
-0.474, -6.064e-9
-0.481, -6.164e-9
-0.488, -6.267e-9
-0.495, -6.362e-9
-0.499, -6.421e-9