File: Supplementary Fig 4/Fig S4f Surface CV no cells/CV SURFACE (incubation) (7).txt
Mar. 6, 2025   16:12:06
Cyclic Voltammetry
File: cv surface (incubation) (7).bin
Data Source:  Experiment
Instrument Model:  CHI920C
Ref. Electrode:
Header:
Note:

Init E (V) = -0.5
High E (V) = 0.5
Low E (V) = -0.5
Init P/N = P
Scan Rate (V/s) = 0.05
Segment = 2
Sample Interval (V) = 0.001
Quiet Time (sec) = 10
Sensitivity (A/V) = 1e-7

Results:

Channel 1:
Segment 1:

Segment 2:

Potential/V, Current/A

-0.500, -4.756e-9
-0.493, -4.493e-9
-0.486, -4.307e-9
-0.479, -4.121e-9
-0.472, -3.944e-9
-0.465, -3.788e-9
-0.458, -3.631e-9
-0.451, -3.481e-9
-0.444, -3.335e-9
-0.437, -3.189e-9
-0.430, -3.056e-9
-0.423, -2.923e-9
-0.416, -2.790e-9
-0.409, -2.673e-9
-0.402, -2.553e-9
-0.395, -2.437e-9
-0.388, -2.331e-9
-0.381, -2.228e-9
-0.374, -2.119e-9
-0.367, -2.025e-9
-0.360, -1.928e-9
-0.353, -1.826e-9
-0.346, -1.749e-9
-0.339, -1.658e-9
-0.332, -1.571e-9
-0.325, -1.495e-9
-0.318, -1.412e-9
-0.311, -1.340e-9
-0.304, -1.276e-9
-0.297, -1.206e-9
-0.290, -1.141e-9
-0.283, -1.083e-9
-0.276, -1.024e-9
-0.269, -9.584e-10
-0.262, -9.096e-10
-0.255, -8.531e-10
-0.248, -8.058e-10
-0.241, -7.560e-10
-0.234, -7.035e-10
-0.227, -6.634e-10
-0.220, -6.140e-10
-0.213, -5.710e-10
-0.206, -5.321e-10
-0.199, -4.788e-10
-0.192, -4.430e-10
-0.185, -3.994e-10
-0.178, -3.618e-10
-0.171, -3.298e-10
-0.164, -2.906e-10
-0.157, -2.524e-10
-0.150, -2.172e-10
-0.143, -1.803e-10
-0.136, -1.465e-10
-0.129, -1.202e-10
-0.122, -8.701e-11
-0.115, -5.631e-11
-0.108, -2.648e-11
-0.101, 1.213e-11
-0.094, 4.225e-11
-0.087, 6.174e-11
-0.080, 9.050e-11
-0.073, 1.135e-10
-0.066, 1.328e-10
-0.059, 1.607e-10
-0.052, 2.002e-10
-0.045, 2.280e-10
-0.038, 2.293e-10
-0.031, 2.484e-10
-0.024, 2.720e-10
-0.017, 2.875e-10
-0.010, 3.112e-10
-0.003, 3.325e-10
0.004, 3.582e-10
0.011, 3.721e-10
0.018, 3.871e-10
0.025, 3.994e-10
0.032, 4.165e-10
0.039, 4.350e-10
0.046, 4.479e-10
0.053, 4.662e-10
0.060, 4.808e-10
0.067, 5.005e-10
0.074, 5.199e-10
0.081, 5.322e-10
0.088, 5.481e-10
0.095, 5.833e-10
0.102, 5.945e-10
0.109, 6.439e-10
0.116, 6.830e-10
0.123, 7.157e-10
0.130, 7.346e-10
0.137, 8.036e-10
0.144, 8.757e-10
0.151, 9.053e-10
0.158, 9.326e-10
0.165, 1.018e-9
0.172, 1.057e-9
0.179, 1.080e-9
0.186, 1.121e-9
0.193, 1.155e-9
0.200, 1.202e-9
0.207, 1.260e-9
0.214, 1.280e-9
0.221, 1.321e-9
0.228, 1.378e-9
0.235, 1.402e-9
0.242, 1.416e-9
0.249, 1.443e-9
0.256, 1.465e-9
0.263, 1.505e-9
0.270, 1.531e-9
0.277, 1.560e-9
0.284, 1.597e-9
0.291, 1.643e-9
0.298, 1.686e-9
0.305, 1.722e-9
0.312, 1.757e-9
0.319, 1.806e-9
0.326, 1.854e-9
0.333, 1.880e-9
0.340, 1.925e-9
0.347, 1.966e-9
0.354, 2.001e-9
0.361, 2.044e-9
0.368, 2.087e-9
0.375, 2.121e-9
0.382, 2.173e-9
0.389, 2.221e-9
0.396, 2.260e-9
0.403, 2.311e-9
0.410, 2.352e-9
0.417, 2.383e-9
0.424, 2.426e-9
0.431, 2.472e-9
0.438, 2.511e-9
0.445, 2.542e-9
0.452, 2.577e-9
0.459, 2.619e-9
0.466, 2.656e-9
0.473, 2.697e-9
0.480, 2.738e-9
0.487, 2.783e-9
0.494, 2.815e-9
0.499, 2.736e-9
0.492, 2.476e-9
0.485, 2.313e-9
0.478, 2.197e-9
0.471, 2.092e-9
0.464, 2.009e-9
0.457, 1.925e-9
0.450, 1.840e-9
0.443, 1.767e-9
0.436, 1.699e-9
0.429, 1.628e-9
0.422, 1.570e-9
0.415, 1.509e-9
0.408, 1.452e-9
0.401, 1.390e-9
0.394, 1.335e-9
0.387, 1.271e-9
0.380, 1.214e-9
0.373, 1.163e-9
0.366, 1.104e-9
0.359, 1.058e-9
0.352, 1.010e-9
0.345, 9.545e-10
0.338, 9.106e-10
0.331, 8.640e-10
0.324, 8.132e-10
0.317, 7.724e-10
0.310, 7.347e-10
0.303, 6.837e-10
0.296, 6.515e-10
0.289, 6.084e-10
0.282, 5.702e-10
0.275, 5.357e-10
0.268, 4.912e-10
0.261, 4.554e-10
0.254, 4.194e-10
0.247, 3.825e-10
0.240, 3.551e-10
0.233, 3.248e-10
0.226, 2.868e-10
0.219, 2.583e-10
0.212, 2.279e-10
0.205, 1.903e-10
0.198, 1.610e-10
0.191, 1.367e-10
0.184, 1.041e-10
0.177, 7.315e-11
0.170, 5.102e-11
0.163, 1.846e-11
0.156, -8.052e-12
0.149, -4.003e-11
0.142, -6.927e-11
0.135, -9.296e-11
0.128, -1.224e-10
0.121, -1.455e-10
0.114, -1.691e-10
0.107, -1.995e-10
0.100, -2.265e-10
0.093, -2.480e-10
0.086, -2.815e-10
0.079, -3.114e-10
0.072, -3.299e-10
0.065, -3.599e-10
0.058, -3.866e-10
0.051, -4.079e-10
0.044, -4.395e-10
0.037, -4.701e-10
0.030, -4.968e-10
0.023, -5.348e-10
0.016, -5.712e-10
0.009, -5.959e-10
0.002, -6.279e-10
-0.005, -6.698e-10
-0.012, -6.992e-10
-0.019, -7.379e-10
-0.026, -7.813e-10
-0.033, -8.157e-10
-0.040, -8.568e-10
-0.047, -8.991e-10
-0.054, -9.452e-10
-0.061, -9.925e-10
-0.068, -1.041e-9
-0.075, -1.091e-9
-0.082, -1.146e-9
-0.089, -1.191e-9
-0.096, -1.252e-9
-0.103, -1.315e-9
-0.110, -1.365e-9
-0.117, -1.428e-9
-0.124, -1.491e-9
-0.131, -1.557e-9
-0.138, -1.622e-9
-0.145, -1.682e-9
-0.152, -1.755e-9
-0.159, -1.818e-9
-0.166, -1.893e-9
-0.173, -1.963e-9
-0.180, -2.034e-9
-0.187, -2.112e-9
-0.194, -2.183e-9
-0.201, -2.257e-9
-0.208, -2.335e-9
-0.215, -2.405e-9
-0.222, -2.484e-9
-0.229, -2.551e-9
-0.236, -2.623e-9
-0.243, -2.704e-9
-0.250, -2.781e-9
-0.257, -2.864e-9
-0.264, -2.945e-9
-0.271, -3.027e-9
-0.278, -3.108e-9
-0.285, -3.190e-9
-0.292, -3.277e-9
-0.299, -3.357e-9
-0.306, -3.446e-9
-0.313, -3.521e-9
-0.320, -3.604e-9
-0.327, -3.705e-9
-0.334, -3.791e-9
-0.341, -3.878e-9
-0.348, -3.969e-9
-0.355, -4.074e-9
-0.362, -4.176e-9
-0.369, -4.280e-9
-0.376, -4.388e-9
-0.383, -4.486e-9
-0.390, -4.591e-9
-0.397, -4.719e-9
-0.404, -4.822e-9
-0.411, -4.919e-9
-0.418, -5.037e-9
-0.425, -5.158e-9
-0.432, -5.261e-9
-0.439, -5.367e-9
-0.446, -5.482e-9
-0.453, -5.585e-9
-0.460, -5.701e-9
-0.467, -5.813e-9
-0.474, -5.922e-9
-0.481, -6.025e-9
-0.488, -6.119e-9
-0.495, -6.226e-9
-0.499, -6.291e-9