File: Supplementary Fig 4/Fig S4f Surface CV no cells/CV SURFACE (incubation) (1).txt
Mar. 6, 2025   16:05:19
Cyclic Voltammetry
File: cv surface (incubation) (1).bin
Data Source:  Experiment
Instrument Model:  CHI920C
Ref. Electrode:
Header:
Note:

Init E (V) = -0.5
High E (V) = 0.5
Low E (V) = -0.5
Init P/N = P
Scan Rate (V/s) = 0.05
Segment = 2
Sample Interval (V) = 0.001
Quiet Time (sec) = 10
Sensitivity (A/V) = 1e-7

Results:

Channel 1:
Segment 1:

Segment 2:

Potential/V, Current/A

-0.500, -5.304e-9
-0.493, -5.028e-9
-0.486, -4.826e-9
-0.479, -4.651e-9
-0.472, -4.478e-9
-0.465, -4.320e-9
-0.458, -4.176e-9
-0.451, -4.020e-9
-0.444, -3.880e-9
-0.437, -3.750e-9
-0.430, -3.610e-9
-0.423, -3.487e-9
-0.416, -3.362e-9
-0.409, -3.240e-9
-0.402, -3.119e-9
-0.395, -2.998e-9
-0.388, -2.890e-9
-0.381, -2.772e-9
-0.374, -2.663e-9
-0.367, -2.562e-9
-0.360, -2.451e-9
-0.353, -2.354e-9
-0.346, -2.256e-9
-0.339, -2.156e-9
-0.332, -2.063e-9
-0.325, -1.970e-9
-0.318, -1.880e-9
-0.311, -1.794e-9
-0.304, -1.702e-9
-0.297, -1.627e-9
-0.290, -1.546e-9
-0.283, -1.462e-9
-0.276, -1.393e-9
-0.269, -1.315e-9
-0.262, -1.240e-9
-0.255, -1.166e-9
-0.248, -1.097e-9
-0.241, -1.032e-9
-0.234, -9.517e-10
-0.227, -8.939e-10
-0.220, -8.339e-10
-0.213, -7.805e-10
-0.206, -7.221e-10
-0.199, -6.623e-10
-0.192, -6.006e-10
-0.185, -5.446e-10
-0.178, -4.837e-10
-0.171, -4.295e-10
-0.164, -3.676e-10
-0.157, -3.217e-10
-0.150, -2.703e-10
-0.143, -2.067e-10
-0.136, -1.642e-10
-0.129, -1.155e-10
-0.122, -6.596e-11
-0.115, -2.102e-11
-0.108, 3.123e-11
-0.101, 7.539e-11
-0.094, 1.212e-10
-0.087, 1.598e-10
-0.080, 1.936e-10
-0.073, 2.407e-10
-0.066, 2.818e-10
-0.059, 3.216e-10
-0.052, 3.645e-10
-0.045, 4.055e-10
-0.038, 4.343e-10
-0.031, 4.855e-10
-0.024, 5.173e-10
-0.017, 5.518e-10
-0.010, 5.849e-10
-0.003, 6.143e-10
0.004, 6.473e-10
0.011, 6.757e-10
0.018, 7.045e-10
0.025, 7.333e-10
0.032, 7.604e-10
0.039, 7.897e-10
0.046, 8.148e-10
0.053, 8.399e-10
0.060, 8.683e-10
0.067, 8.878e-10
0.074, 9.129e-10
0.081, 9.406e-10
0.088, 9.632e-10
0.095, 9.912e-10
0.102, 1.015e-9
0.109, 1.041e-9
0.116, 1.070e-9
0.123, 1.093e-9
0.130, 1.118e-9
0.137, 1.147e-9
0.144, 1.169e-9
0.151, 1.193e-9
0.158, 1.222e-9
0.165, 1.252e-9
0.172, 1.282e-9
0.179, 1.304e-9
0.186, 1.340e-9
0.193, 1.374e-9
0.200, 1.409e-9
0.207, 1.450e-9
0.214, 1.482e-9
0.221, 1.517e-9
0.228, 1.563e-9
0.235, 1.599e-9
0.242, 1.638e-9
0.249, 1.687e-9
0.256, 1.719e-9
0.263, 1.759e-9
0.270, 1.799e-9
0.277, 1.833e-9
0.284, 1.877e-9
0.291, 1.910e-9
0.298, 1.956e-9
0.305, 1.989e-9
0.312, 2.023e-9
0.319, 2.065e-9
0.326, 2.092e-9
0.333, 2.125e-9
0.340, 2.168e-9
0.347, 2.204e-9
0.354, 2.242e-9
0.361, 2.280e-9
0.368, 2.326e-9
0.375, 2.361e-9
0.382, 2.396e-9
0.389, 2.432e-9
0.396, 2.471e-9
0.403, 2.506e-9
0.410, 2.536e-9
0.417, 2.583e-9
0.424, 2.616e-9
0.431, 2.647e-9
0.438, 2.692e-9
0.445, 2.728e-9
0.452, 2.765e-9
0.459, 2.803e-9
0.466, 2.833e-9
0.473, 2.867e-9
0.480, 2.903e-9
0.487, 2.933e-9
0.494, 2.960e-9
0.499, 2.888e-9
0.492, 2.597e-9
0.485, 2.401e-9
0.478, 2.247e-9
0.471, 2.109e-9
0.464, 2.000e-9
0.457, 1.886e-9
0.450, 1.784e-9
0.443, 1.696e-9
0.436, 1.594e-9
0.429, 1.515e-9
0.422, 1.441e-9
0.415, 1.357e-9
0.408, 1.281e-9
0.401, 1.217e-9
0.394, 1.141e-9
0.387, 1.082e-9
0.380, 1.021e-9
0.373, 9.588e-10
0.366, 8.972e-10
0.359, 8.451e-10
0.352, 7.895e-10
0.345, 7.396e-10
0.338, 6.832e-10
0.331, 6.365e-10
0.324, 5.903e-10
0.317, 5.395e-10
0.310, 4.992e-10
0.303, 4.439e-10
0.296, 4.008e-10
0.289, 3.657e-10
0.282, 3.222e-10
0.275, 2.897e-10
0.268, 2.506e-10
0.261, 2.102e-10
0.254, 1.773e-10
0.247, 1.383e-10
0.240, 1.097e-10
0.233, 7.939e-11
0.226, 4.196e-11
0.219, 1.417e-11
0.212, -2.111e-11
0.205, -5.640e-11
0.198, -8.535e-11
0.191, -1.163e-10
0.184, -1.436e-10
0.177, -1.730e-10
0.170, -2.018e-10
0.163, -2.264e-10
0.156, -2.629e-10
0.149, -2.946e-10
0.142, -3.175e-10
0.135, -3.444e-10
0.128, -3.698e-10
0.121, -3.950e-10
0.114, -4.284e-10
0.107, -4.488e-10
0.100, -4.799e-10
0.093, -5.121e-10
0.086, -5.427e-10
0.079, -5.714e-10
0.072, -5.963e-10
0.065, -6.316e-10
0.058, -6.564e-10
0.051, -6.864e-10
0.044, -7.233e-10
0.037, -7.552e-10
0.030, -7.940e-10
0.023, -8.270e-10
0.016, -8.643e-10
0.009, -9.027e-10
0.002, -9.403e-10
-0.005, -9.902e-10
-0.012, -1.037e-9
-0.019, -1.083e-9
-0.026, -1.134e-9
-0.033, -1.184e-9
-0.040, -1.234e-9
-0.047, -1.297e-9
-0.054, -1.351e-9
-0.061, -1.408e-9
-0.068, -1.468e-9
-0.075, -1.540e-9
-0.082, -1.603e-9
-0.089, -1.665e-9
-0.096, -1.739e-9
-0.103, -1.812e-9
-0.110, -1.884e-9
-0.117, -1.962e-9
-0.124, -2.041e-9
-0.131, -2.120e-9
-0.138, -2.197e-9
-0.145, -2.280e-9
-0.152, -2.367e-9
-0.159, -2.447e-9
-0.166, -2.530e-9
-0.173, -2.618e-9
-0.180, -2.694e-9
-0.187, -2.782e-9
-0.194, -2.872e-9
-0.201, -2.952e-9
-0.208, -3.036e-9
-0.215, -3.120e-9
-0.222, -3.201e-9
-0.229, -3.286e-9
-0.236, -3.375e-9
-0.243, -3.465e-9
-0.250, -3.535e-9
-0.257, -3.622e-9
-0.264, -3.716e-9
-0.271, -3.795e-9
-0.278, -3.874e-9
-0.285, -3.968e-9
-0.292, -4.044e-9
-0.299, -4.133e-9
-0.306, -4.223e-9
-0.313, -4.308e-9
-0.320, -4.395e-9
-0.327, -4.480e-9
-0.334, -4.563e-9
-0.341, -4.653e-9
-0.348, -4.751e-9
-0.355, -4.857e-9
-0.362, -4.963e-9
-0.369, -5.075e-9
-0.376, -5.173e-9
-0.383, -5.273e-9
-0.390, -5.365e-9
-0.397, -5.469e-9
-0.404, -5.572e-9
-0.411, -5.679e-9
-0.418, -5.780e-9
-0.425, -5.878e-9
-0.432, -5.990e-9
-0.439, -6.097e-9
-0.446, -6.193e-9
-0.453, -6.294e-9
-0.460, -6.399e-9
-0.467, -6.505e-9
-0.474, -6.608e-9
-0.481, -6.710e-9
-0.488, -6.816e-9
-0.495, -6.916e-9
-0.499, -6.980e-9