File: Fig 4/Fig 3c CV surface dark/CV_surface_dark_3.txt
Nov. 20, 2024   15:50:03
Cyclic Voltammetry
File: +12 2319-1 fto cv_cells_dark_surface_3.bin
Data Source:  Experiment
Instrument Model:  CHI920C
Ref. Electrode:
Header:
Note:

Init E (V) = -0.5
High E (V) = 0.5
Low E (V) = -0.5
Init P/N = P
Scan Rate (V/s) = 0.05
Segment = 2
Sample Interval (V) = 0.001
Quiet Time (sec) = 10
Sensitivity (A/V) = 1e-7

Results:

Channel 1:
Segment 1:
Ep = 0.139V
ip = 1.002e-9A
Ah = 4.891e-10C

Segment 2:

Potential/V, Current/A

-0.500, -1.771e-9
-0.493, -1.517e-9
-0.486, -1.395e-9
-0.479, -1.309e-9
-0.472, -1.233e-9
-0.465, -1.163e-9
-0.458, -1.104e-9
-0.451, -1.049e-9
-0.444, -9.915e-10
-0.437, -9.357e-10
-0.430, -8.876e-10
-0.423, -8.388e-10
-0.416, -7.969e-10
-0.409, -7.473e-10
-0.402, -6.995e-10
-0.395, -6.578e-10
-0.388, -6.127e-10
-0.381, -5.711e-10
-0.374, -5.297e-10
-0.367, -4.794e-10
-0.360, -4.378e-10
-0.353, -3.948e-10
-0.346, -3.549e-10
-0.339, -3.165e-10
-0.332, -2.752e-10
-0.325, -2.281e-10
-0.318, -1.850e-10
-0.311, -1.460e-10
-0.304, -1.040e-10
-0.297, -6.508e-11
-0.290, -2.014e-11
-0.283, 2.558e-11
-0.276, 6.642e-11
-0.269, 1.076e-10
-0.262, 1.464e-10
-0.255, 1.837e-10
-0.248, 2.306e-10
-0.241, 2.729e-10
-0.234, 3.140e-10
-0.227, 3.583e-10
-0.220, 3.959e-10
-0.213, 4.377e-10
-0.206, 4.877e-10
-0.199, 5.302e-10
-0.192, 5.749e-10
-0.185, 6.178e-10
-0.178, 6.573e-10
-0.171, 7.007e-10
-0.164, 7.436e-10
-0.157, 7.842e-10
-0.150, 8.239e-10
-0.143, 8.667e-10
-0.136, 9.086e-10
-0.129, 9.516e-10
-0.122, 9.930e-10
-0.115, 1.031e-9
-0.108, 1.070e-9
-0.101, 1.113e-9
-0.094, 1.147e-9
-0.087, 1.188e-9
-0.080, 1.230e-9
-0.073, 1.268e-9
-0.066, 1.309e-9
-0.059, 1.347e-9
-0.052, 1.387e-9
-0.045, 1.428e-9
-0.038, 1.469e-9
-0.031, 1.509e-9
-0.024, 1.548e-9
-0.017, 1.587e-9
-0.010, 1.626e-9
-0.003, 1.669e-9
0.004, 1.712e-9
0.011, 1.752e-9
0.018, 1.796e-9
0.025, 1.841e-9
0.032, 1.882e-9
0.039, 1.930e-9
0.046, 1.976e-9
0.053, 2.018e-9
0.060, 2.064e-9
0.067, 2.106e-9
0.074, 2.151e-9
0.081, 2.201e-9
0.088, 2.248e-9
0.095, 2.299e-9
0.102, 2.358e-9
0.109, 2.434e-9
0.116, 2.593e-9
0.123, 2.957e-9
0.130, 3.294e-9
0.137, 3.438e-9
0.144, 3.345e-9
0.151, 3.060e-9
0.158, 2.844e-9
0.165, 2.759e-9
0.172, 2.721e-9
0.179, 2.722e-9
0.186, 2.735e-9
0.193, 2.752e-9
0.200, 2.773e-9
0.207, 2.790e-9
0.214, 2.813e-9
0.221, 2.830e-9
0.228, 2.850e-9
0.235, 2.871e-9
0.242, 2.892e-9
0.249, 2.914e-9
0.256, 2.936e-9
0.263, 2.955e-9
0.270, 2.979e-9
0.277, 3.003e-9
0.284, 3.026e-9
0.291, 3.047e-9
0.298, 3.070e-9
0.305, 3.092e-9
0.312, 3.119e-9
0.319, 3.151e-9
0.326, 3.181e-9
0.333, 3.208e-9
0.340, 3.237e-9
0.347, 3.267e-9
0.354, 3.298e-9
0.361, 3.327e-9
0.368, 3.360e-9
0.375, 3.396e-9
0.382, 3.431e-9
0.389, 3.466e-9
0.396, 3.499e-9
0.403, 3.537e-9
0.410, 3.565e-9
0.417, 3.604e-9
0.424, 3.647e-9
0.431, 3.690e-9
0.438, 3.735e-9
0.445, 3.775e-9
0.452, 3.815e-9
0.459, 3.859e-9
0.466, 3.903e-9
0.473, 3.949e-9
0.480, 3.992e-9
0.487, 4.036e-9
0.494, 4.080e-9
0.499, 3.953e-9
0.492, 3.468e-9
0.485, 3.172e-9
0.478, 2.940e-9
0.471, 2.746e-9
0.464, 2.570e-9
0.457, 2.419e-9
0.450, 2.279e-9
0.443, 2.152e-9
0.436, 2.042e-9
0.429, 1.932e-9
0.422, 1.828e-9
0.415, 1.731e-9
0.408, 1.638e-9
0.401, 1.550e-9
0.394, 1.468e-9
0.387, 1.382e-9
0.380, 1.303e-9
0.373, 1.229e-9
0.366, 1.151e-9
0.359, 1.085e-9
0.352, 1.017e-9
0.345, 9.511e-10
0.338, 8.811e-10
0.331, 8.157e-10
0.324, 7.533e-10
0.317, 6.887e-10
0.310, 6.313e-10
0.303, 5.696e-10
0.296, 5.112e-10
0.289, 4.439e-10
0.282, 3.894e-10
0.275, 3.349e-10
0.268, 2.820e-10
0.261, 2.249e-10
0.254, 1.699e-10
0.247, 1.231e-10
0.240, 7.130e-11
0.233, 2.022e-11
0.226, -3.622e-11
0.219, -8.857e-11
0.212, -1.367e-10
0.205, -1.863e-10
0.198, -2.380e-10
0.191, -2.958e-10
0.184, -3.443e-10
0.177, -3.942e-10
0.170, -4.486e-10
0.163, -5.027e-10
0.156, -5.623e-10
0.149, -6.153e-10
0.142, -6.724e-10
0.135, -7.271e-10
0.128, -7.920e-10
0.121, -8.476e-10
0.114, -9.082e-10
0.107, -9.694e-10
0.100, -1.045e-9
0.093, -1.105e-9
0.086, -1.171e-9
0.079, -1.243e-9
0.072, -1.313e-9
0.065, -1.379e-9
0.058, -1.447e-9
0.051, -1.523e-9
0.044, -1.588e-9
0.037, -1.653e-9
0.030, -1.717e-9
0.023, -1.783e-9
0.016, -1.843e-9
0.009, -1.906e-9
0.002, -1.964e-9
-0.005, -2.021e-9
-0.012, -2.075e-9
-0.019, -2.128e-9
-0.026, -2.178e-9
-0.033, -2.244e-9
-0.040, -2.318e-9
-0.047, -2.413e-9
-0.054, -2.511e-9
-0.061, -2.586e-9
-0.068, -2.577e-9
-0.075, -2.540e-9
-0.082, -2.532e-9
-0.089, -2.514e-9
-0.096, -2.551e-9
-0.103, -2.564e-9
-0.110, -2.586e-9
-0.117, -2.621e-9
-0.124, -2.632e-9
-0.131, -2.646e-9
-0.138, -2.671e-9
-0.145, -2.694e-9
-0.152, -2.719e-9
-0.159, -2.741e-9
-0.166, -2.764e-9
-0.173, -2.784e-9
-0.180, -2.802e-9
-0.187, -2.826e-9
-0.194, -2.848e-9
-0.201, -2.871e-9
-0.208, -2.891e-9
-0.215, -2.911e-9
-0.222, -2.934e-9
-0.229, -2.955e-9
-0.236, -2.977e-9
-0.243, -2.999e-9
-0.250, -3.016e-9
-0.257, -3.036e-9
-0.264, -3.057e-9
-0.271, -3.075e-9
-0.278, -3.097e-9
-0.285, -3.113e-9
-0.292, -3.129e-9
-0.299, -3.148e-9
-0.306, -3.164e-9
-0.313, -3.182e-9
-0.320, -3.196e-9
-0.327, -3.213e-9
-0.334, -3.225e-9
-0.341, -3.240e-9
-0.348, -3.253e-9
-0.355, -3.264e-9
-0.362, -3.275e-9
-0.369, -3.288e-9
-0.376, -3.300e-9
-0.383, -3.315e-9
-0.390, -3.327e-9
-0.397, -3.339e-9
-0.404, -3.353e-9
-0.411, -3.365e-9
-0.418, -3.377e-9
-0.425, -3.389e-9
-0.432, -3.402e-9
-0.439, -3.417e-9
-0.446, -3.432e-9
-0.453, -3.447e-9
-0.460, -3.462e-9
-0.467, -3.478e-9
-0.474, -3.490e-9
-0.481, -3.507e-9
-0.488, -3.521e-9
-0.495, -3.539e-9
-0.499, -3.549e-9