File: Fig 4/Fig 3c CV surface dark/CV_surface_dark_7.txt
Nov. 20, 2024   15:54:28
Cyclic Voltammetry
File: +12 2319-1 fto cv_cells_dark_surface_7.bin
Data Source:  Experiment
Instrument Model:  CHI920C
Ref. Electrode:
Header:
Note:

Init E (V) = -0.5
High E (V) = 0.5
Low E (V) = -0.5
Init P/N = P
Scan Rate (V/s) = 0.05
Segment = 2
Sample Interval (V) = 0.001
Quiet Time (sec) = 10
Sensitivity (A/V) = 1e-7

Results:

Channel 1:
Segment 1:
Ep = 0.122V
ip = 2.325e-9A
Ah = 5.358e-10C

Segment 2:

Potential/V, Current/A

-0.500, -1.322e-9
-0.493, -1.059e-9
-0.486, -9.361e-10
-0.479, -8.513e-10
-0.472, -7.856e-10
-0.465, -7.158e-10
-0.458, -6.583e-10
-0.451, -6.029e-10
-0.444, -5.551e-10
-0.437, -4.989e-10
-0.430, -4.499e-10
-0.423, -4.024e-10
-0.416, -3.577e-10
-0.409, -3.177e-10
-0.402, -2.698e-10
-0.395, -2.251e-10
-0.388, -1.826e-10
-0.381, -1.413e-10
-0.374, -1.042e-10
-0.367, -6.342e-11
-0.360, -1.829e-11
-0.353, 2.304e-11
-0.346, 6.438e-11
-0.339, 1.021e-10
-0.332, 1.387e-10
-0.325, 1.747e-10
-0.318, 2.138e-10
-0.311, 2.577e-10
-0.304, 2.973e-10
-0.297, 3.361e-10
-0.290, 3.737e-10
-0.283, 4.117e-10
-0.276, 4.549e-10
-0.269, 5.002e-10
-0.262, 5.420e-10
-0.255, 5.803e-10
-0.248, 6.214e-10
-0.241, 6.590e-10
-0.234, 7.010e-10
-0.227, 7.433e-10
-0.220, 7.814e-10
-0.213, 8.221e-10
-0.206, 8.654e-10
-0.199, 9.067e-10
-0.192, 9.490e-10
-0.185, 9.929e-10
-0.178, 1.031e-9
-0.171, 1.070e-9
-0.164, 1.112e-9
-0.157, 1.149e-9
-0.150, 1.192e-9
-0.143, 1.235e-9
-0.136, 1.276e-9
-0.129, 1.315e-9
-0.122, 1.356e-9
-0.115, 1.398e-9
-0.108, 1.440e-9
-0.101, 1.485e-9
-0.094, 1.522e-9
-0.087, 1.562e-9
-0.080, 1.602e-9
-0.073, 1.640e-9
-0.066, 1.683e-9
-0.059, 1.726e-9
-0.052, 1.764e-9
-0.045, 1.805e-9
-0.038, 1.847e-9
-0.031, 1.887e-9
-0.024, 1.930e-9
-0.017, 1.972e-9
-0.010, 2.012e-9
-0.003, 2.054e-9
0.004, 2.091e-9
0.011, 2.131e-9
0.018, 2.175e-9
0.025, 2.221e-9
0.032, 2.264e-9
0.039, 2.309e-9
0.046, 2.353e-9
0.053, 2.395e-9
0.060, 2.443e-9
0.067, 2.487e-9
0.074, 2.538e-9
0.081, 2.585e-9
0.088, 2.636e-9
0.095, 2.700e-9
0.102, 2.795e-9
0.109, 3.144e-9
0.116, 4.191e-9
0.123, 5.040e-9
0.130, 4.239e-9
0.137, 3.450e-9
0.144, 3.099e-9
0.151, 3.046e-9
0.158, 3.039e-9
0.165, 3.048e-9
0.172, 3.065e-9
0.179, 3.083e-9
0.186, 3.100e-9
0.193, 3.122e-9
0.200, 3.146e-9
0.207, 3.164e-9
0.214, 3.186e-9
0.221, 3.207e-9
0.228, 3.225e-9
0.235, 3.244e-9
0.242, 3.263e-9
0.249, 3.280e-9
0.256, 3.297e-9
0.263, 3.315e-9
0.270, 3.331e-9
0.277, 3.350e-9
0.284, 3.369e-9
0.291, 3.393e-9
0.298, 3.416e-9
0.305, 3.440e-9
0.312, 3.469e-9
0.319, 3.493e-9
0.326, 3.519e-9
0.333, 3.546e-9
0.340, 3.573e-9
0.347, 3.601e-9
0.354, 3.634e-9
0.361, 3.670e-9
0.368, 3.705e-9
0.375, 3.741e-9
0.382, 3.775e-9
0.389, 3.809e-9
0.396, 3.842e-9
0.403, 3.881e-9
0.410, 3.913e-9
0.417, 3.961e-9
0.424, 4.000e-9
0.431, 4.040e-9
0.438, 4.080e-9
0.445, 4.128e-9
0.452, 4.177e-9
0.459, 4.225e-9
0.466, 4.270e-9
0.473, 4.316e-9
0.480, 4.368e-9
0.487, 4.418e-9
0.494, 4.472e-9
0.499, 4.328e-9
0.492, 3.825e-9
0.485, 3.523e-9
0.478, 3.283e-9
0.471, 3.077e-9
0.464, 2.902e-9
0.457, 2.747e-9
0.450, 2.597e-9
0.443, 2.470e-9
0.436, 2.347e-9
0.429, 2.232e-9
0.422, 2.122e-9
0.415, 2.024e-9
0.408, 1.934e-9
0.401, 1.836e-9
0.394, 1.745e-9
0.387, 1.658e-9
0.380, 1.578e-9
0.373, 1.496e-9
0.366, 1.418e-9
0.359, 1.341e-9
0.352, 1.267e-9
0.345, 1.195e-9
0.338, 1.125e-9
0.331, 1.061e-9
0.324, 9.961e-10
0.317, 9.303e-10
0.310, 8.647e-10
0.303, 7.993e-10
0.296, 7.404e-10
0.289, 6.763e-10
0.282, 6.202e-10
0.275, 5.614e-10
0.268, 5.023e-10
0.261, 4.348e-10
0.254, 3.820e-10
0.247, 3.277e-10
0.240, 2.741e-10
0.233, 2.164e-10
0.226, 1.601e-10
0.219, 1.088e-10
0.212, 5.385e-11
0.205, 3.901e-14
0.198, -6.430e-11
0.191, -1.173e-10
0.184, -1.734e-10
0.177, -2.296e-10
0.170, -2.948e-10
0.163, -3.524e-10
0.156, -4.127e-10
0.149, -4.754e-10
0.142, -5.458e-10
0.135, -6.087e-10
0.128, -6.763e-10
0.121, -7.446e-10
0.114, -8.159e-10
0.107, -8.822e-10
0.100, -9.577e-10
0.093, -1.037e-9
0.086, -1.106e-9
0.079, -1.179e-9
0.072, -1.258e-9
0.065, -1.329e-9
0.058, -1.400e-9
0.051, -1.471e-9
0.044, -1.546e-9
0.037, -1.611e-9
0.030, -1.675e-9
0.023, -1.741e-9
0.016, -1.801e-9
0.009, -1.860e-9
0.002, -1.915e-9
-0.005, -1.966e-9
-0.012, -2.019e-9
-0.019, -2.074e-9
-0.026, -2.149e-9
-0.033, -2.247e-9
-0.040, -2.361e-9
-0.047, -2.490e-9
-0.054, -2.601e-9
-0.061, -2.611e-9
-0.068, -2.553e-9
-0.075, -2.472e-9
-0.082, -2.431e-9
-0.089, -2.437e-9
-0.096, -2.424e-9
-0.103, -2.419e-9
-0.110, -2.453e-9
-0.117, -2.446e-9
-0.124, -2.466e-9
-0.131, -2.489e-9
-0.138, -2.492e-9
-0.145, -2.511e-9
-0.152, -2.531e-9
-0.159, -2.545e-9
-0.166, -2.567e-9
-0.173, -2.584e-9
-0.180, -2.606e-9
-0.187, -2.623e-9
-0.194, -2.644e-9
-0.201, -2.660e-9
-0.208, -2.679e-9
-0.215, -2.703e-9
-0.222, -2.724e-9
-0.229, -2.747e-9
-0.236, -2.764e-9
-0.243, -2.783e-9
-0.250, -2.801e-9
-0.257, -2.822e-9
-0.264, -2.842e-9
-0.271, -2.858e-9
-0.278, -2.876e-9
-0.285, -2.891e-9
-0.292, -2.906e-9
-0.299, -2.921e-9
-0.306, -2.936e-9
-0.313, -2.953e-9
-0.320, -2.964e-9
-0.327, -2.978e-9
-0.334, -2.988e-9
-0.341, -3.002e-9
-0.348, -3.012e-9
-0.355, -3.023e-9
-0.362, -3.033e-9
-0.369, -3.043e-9
-0.376, -3.055e-9
-0.383, -3.068e-9
-0.390, -3.078e-9
-0.397, -3.089e-9
-0.404, -3.100e-9
-0.411, -3.114e-9
-0.418, -3.127e-9
-0.425, -3.139e-9
-0.432, -3.149e-9
-0.439, -3.164e-9
-0.446, -3.179e-9
-0.453, -3.195e-9
-0.460, -3.214e-9
-0.467, -3.230e-9
-0.474, -3.245e-9
-0.481, -3.259e-9
-0.488, -3.273e-9
-0.495, -3.294e-9
-0.499, -3.305e-9