File: Fig 4/Fig 3c CV surface dark/CV_surface_dark_6.txt
Nov. 20, 2024   15:53:22
Cyclic Voltammetry
File: +12 2319-1 fto cv_cells_dark_surface_6.bin
Data Source:  Experiment
Instrument Model:  CHI920C
Ref. Electrode:
Header:
Note:

Init E (V) = -0.5
High E (V) = 0.5
Low E (V) = -0.5
Init P/N = P
Scan Rate (V/s) = 0.05
Segment = 2
Sample Interval (V) = 0.001
Quiet Time (sec) = 10
Sensitivity (A/V) = 1e-7

Results:

Channel 1:
Segment 1:
Ep = 0.123V
ip = 2.121e-9A
Ah = 5.303e-10C

Segment 2:

Potential/V, Current/A

-0.500, -1.373e-9
-0.493, -1.109e-9
-0.486, -9.918e-10
-0.479, -9.029e-10
-0.472, -8.324e-10
-0.465, -7.715e-10
-0.458, -7.092e-10
-0.451, -6.554e-10
-0.444, -6.033e-10
-0.437, -5.565e-10
-0.430, -5.029e-10
-0.423, -4.535e-10
-0.416, -4.083e-10
-0.409, -3.641e-10
-0.402, -3.233e-10
-0.395, -2.815e-10
-0.388, -2.321e-10
-0.381, -1.906e-10
-0.374, -1.520e-10
-0.367, -1.118e-10
-0.360, -7.317e-11
-0.353, -2.921e-11
-0.346, 1.320e-11
-0.339, 5.219e-11
-0.332, 9.177e-11
-0.325, 1.311e-10
-0.318, 1.663e-10
-0.311, 2.063e-10
-0.304, 2.505e-10
-0.297, 2.891e-10
-0.290, 3.279e-10
-0.283, 3.676e-10
-0.276, 4.041e-10
-0.269, 4.444e-10
-0.262, 4.939e-10
-0.255, 5.340e-10
-0.248, 5.767e-10
-0.241, 6.162e-10
-0.234, 6.555e-10
-0.227, 6.959e-10
-0.220, 7.382e-10
-0.213, 7.793e-10
-0.206, 8.191e-10
-0.199, 8.611e-10
-0.192, 9.027e-10
-0.185, 9.470e-10
-0.178, 9.880e-10
-0.171, 1.027e-9
-0.164, 1.068e-9
-0.157, 1.108e-9
-0.150, 1.148e-9
-0.143, 1.189e-9
-0.136, 1.231e-9
-0.129, 1.272e-9
-0.122, 1.312e-9
-0.115, 1.353e-9
-0.108, 1.397e-9
-0.101, 1.443e-9
-0.094, 1.482e-9
-0.087, 1.519e-9
-0.080, 1.561e-9
-0.073, 1.599e-9
-0.066, 1.637e-9
-0.059, 1.679e-9
-0.052, 1.723e-9
-0.045, 1.762e-9
-0.038, 1.802e-9
-0.031, 1.844e-9
-0.024, 1.882e-9
-0.017, 1.927e-9
-0.010, 1.968e-9
-0.003, 2.009e-9
0.004, 2.047e-9
0.011, 2.088e-9
0.018, 2.127e-9
0.025, 2.175e-9
0.032, 2.220e-9
0.039, 2.261e-9
0.046, 2.307e-9
0.053, 2.353e-9
0.060, 2.397e-9
0.067, 2.442e-9
0.074, 2.491e-9
0.081, 2.540e-9
0.088, 2.589e-9
0.095, 2.644e-9
0.102, 2.734e-9
0.109, 3.011e-9
0.116, 3.947e-9
0.123, 4.820e-9
0.130, 4.300e-9
0.137, 3.544e-9
0.144, 3.104e-9
0.151, 3.007e-9
0.158, 2.991e-9
0.165, 3.000e-9
0.172, 3.017e-9
0.179, 3.033e-9
0.186, 3.053e-9
0.193, 3.071e-9
0.200, 3.091e-9
0.207, 3.106e-9
0.214, 3.127e-9
0.221, 3.149e-9
0.228, 3.169e-9
0.235, 3.189e-9
0.242, 3.206e-9
0.249, 3.227e-9
0.256, 3.245e-9
0.263, 3.264e-9
0.270, 3.283e-9
0.277, 3.301e-9
0.284, 3.322e-9
0.291, 3.342e-9
0.298, 3.365e-9
0.305, 3.391e-9
0.312, 3.419e-9
0.319, 3.445e-9
0.326, 3.473e-9
0.333, 3.500e-9
0.340, 3.529e-9
0.347, 3.557e-9
0.354, 3.585e-9
0.361, 3.619e-9
0.368, 3.656e-9
0.375, 3.692e-9
0.382, 3.727e-9
0.389, 3.765e-9
0.396, 3.800e-9
0.403, 3.835e-9
0.410, 3.868e-9
0.417, 3.912e-9
0.424, 3.953e-9
0.431, 3.997e-9
0.438, 4.040e-9
0.445, 4.078e-9
0.452, 4.126e-9
0.459, 4.180e-9
0.466, 4.224e-9
0.473, 4.271e-9
0.480, 4.316e-9
0.487, 4.367e-9
0.494, 4.424e-9
0.499, 4.281e-9
0.492, 3.781e-9
0.485, 3.479e-9
0.478, 3.240e-9
0.471, 3.035e-9
0.464, 2.860e-9
0.457, 2.705e-9
0.450, 2.558e-9
0.443, 2.430e-9
0.436, 2.307e-9
0.429, 2.195e-9
0.422, 2.088e-9
0.415, 1.988e-9
0.408, 1.894e-9
0.401, 1.798e-9
0.394, 1.711e-9
0.387, 1.623e-9
0.380, 1.544e-9
0.373, 1.466e-9
0.366, 1.385e-9
0.359, 1.310e-9
0.352, 1.237e-9
0.345, 1.162e-9
0.338, 1.098e-9
0.331, 1.030e-9
0.324, 9.673e-10
0.317, 8.993e-10
0.310, 8.373e-10
0.303, 7.731e-10
0.296, 7.125e-10
0.289, 6.514e-10
0.282, 5.930e-10
0.275, 5.351e-10
0.268, 4.738e-10
0.261, 4.110e-10
0.254, 3.609e-10
0.247, 3.053e-10
0.240, 2.496e-10
0.233, 1.890e-10
0.226, 1.407e-10
0.219, 8.680e-11
0.212, 3.260e-11
0.205, -2.423e-11
0.198, -8.194e-11
0.191, -1.368e-10
0.184, -1.919e-10
0.177, -2.495e-10
0.170, -3.144e-10
0.163, -3.684e-10
0.156, -4.286e-10
0.149, -4.894e-10
0.142, -5.588e-10
0.135, -6.199e-10
0.128, -6.842e-10
0.121, -7.545e-10
0.114, -8.221e-10
0.107, -8.882e-10
0.100, -9.618e-10
0.093, -1.039e-9
0.086, -1.108e-9
0.079, -1.183e-9
0.072, -1.259e-9
0.065, -1.329e-9
0.058, -1.400e-9
0.051, -1.470e-9
0.044, -1.546e-9
0.037, -1.611e-9
0.030, -1.674e-9
0.023, -1.739e-9
0.016, -1.800e-9
0.009, -1.858e-9
0.002, -1.918e-9
-0.005, -1.967e-9
-0.012, -2.022e-9
-0.019, -2.076e-9
-0.026, -2.148e-9
-0.033, -2.247e-9
-0.040, -2.361e-9
-0.047, -2.480e-9
-0.054, -2.582e-9
-0.061, -2.590e-9
-0.068, -2.547e-9
-0.075, -2.461e-9
-0.082, -2.453e-9
-0.089, -2.423e-9
-0.096, -2.443e-9
-0.103, -2.449e-9
-0.110, -2.480e-9
-0.117, -2.499e-9
-0.124, -2.488e-9
-0.131, -2.518e-9
-0.138, -2.524e-9
-0.145, -2.534e-9
-0.152, -2.550e-9
-0.159, -2.572e-9
-0.166, -2.590e-9
-0.173, -2.610e-9
-0.180, -2.627e-9
-0.187, -2.650e-9
-0.194, -2.667e-9
-0.201, -2.691e-9
-0.208, -2.711e-9
-0.215, -2.730e-9
-0.222, -2.751e-9
-0.229, -2.770e-9
-0.236, -2.787e-9
-0.243, -2.809e-9
-0.250, -2.828e-9
-0.257, -2.850e-9
-0.264, -2.867e-9
-0.271, -2.885e-9
-0.278, -2.903e-9
-0.285, -2.918e-9
-0.292, -2.933e-9
-0.299, -2.950e-9
-0.306, -2.965e-9
-0.313, -2.985e-9
-0.320, -2.996e-9
-0.327, -3.007e-9
-0.334, -3.021e-9
-0.341, -3.031e-9
-0.348, -3.042e-9
-0.355, -3.056e-9
-0.362, -3.064e-9
-0.369, -3.077e-9
-0.376, -3.088e-9
-0.383, -3.098e-9
-0.390, -3.110e-9
-0.397, -3.120e-9
-0.404, -3.134e-9
-0.411, -3.145e-9
-0.418, -3.157e-9
-0.425, -3.169e-9
-0.432, -3.184e-9
-0.439, -3.196e-9
-0.446, -3.212e-9
-0.453, -3.228e-9
-0.460, -3.242e-9
-0.467, -3.258e-9
-0.474, -3.273e-9
-0.481, -3.289e-9
-0.488, -3.307e-9
-0.495, -3.324e-9
-0.499, -3.334e-9