File: Fig 4/Fig 3c CV surface dark/CV_surface_dark_5.txt
Nov. 20, 2024   15:52:17
Cyclic Voltammetry
File: +12 2319-1 fto cv_cells_dark_surface_5.bin
Data Source:  Experiment
Instrument Model:  CHI920C
Ref. Electrode:
Header:
Note:

Init E (V) = -0.5
High E (V) = 0.5
Low E (V) = -0.5
Init P/N = P
Scan Rate (V/s) = 0.05
Segment = 2
Sample Interval (V) = 0.001
Quiet Time (sec) = 10
Sensitivity (A/V) = 1e-7

Results:

Channel 1:
Segment 1:
Ep = 0.125V
ip = 1.908e-9A
Ah = 5.166e-10C

Segment 2:

Potential/V, Current/A

-0.500, -1.450e-9
-0.493, -1.186e-9
-0.486, -1.074e-9
-0.479, -9.813e-10
-0.472, -9.081e-10
-0.465, -8.442e-10
-0.458, -7.911e-10
-0.451, -7.309e-10
-0.444, -6.801e-10
-0.437, -6.284e-10
-0.430, -5.842e-10
-0.423, -5.370e-10
-0.416, -4.844e-10
-0.409, -4.381e-10
-0.402, -3.955e-10
-0.395, -3.534e-10
-0.388, -3.155e-10
-0.381, -2.696e-10
-0.374, -2.237e-10
-0.367, -1.823e-10
-0.360, -1.427e-10
-0.353, -1.021e-10
-0.346, -6.508e-11
-0.339, -1.955e-11
-0.332, 1.973e-11
-0.325, 5.960e-11
-0.318, 9.869e-11
-0.311, 1.378e-10
-0.304, 1.742e-10
-0.297, 2.178e-10
-0.290, 2.591e-10
-0.283, 2.969e-10
-0.276, 3.380e-10
-0.269, 3.772e-10
-0.262, 4.151e-10
-0.255, 4.610e-10
-0.248, 5.067e-10
-0.241, 5.480e-10
-0.234, 5.903e-10
-0.227, 6.297e-10
-0.220, 6.698e-10
-0.213, 7.133e-10
-0.206, 7.544e-10
-0.199, 7.932e-10
-0.192, 8.367e-10
-0.185, 8.807e-10
-0.178, 9.201e-10
-0.171, 9.635e-10
-0.164, 1.004e-9
-0.157, 1.044e-9
-0.150, 1.085e-9
-0.143, 1.122e-9
-0.136, 1.163e-9
-0.129, 1.205e-9
-0.122, 1.246e-9
-0.115, 1.286e-9
-0.108, 1.329e-9
-0.101, 1.373e-9
-0.094, 1.413e-9
-0.087, 1.455e-9
-0.080, 1.493e-9
-0.073, 1.531e-9
-0.066, 1.571e-9
-0.059, 1.609e-9
-0.052, 1.648e-9
-0.045, 1.690e-9
-0.038, 1.732e-9
-0.031, 1.772e-9
-0.024, 1.811e-9
-0.017, 1.854e-9
-0.010, 1.893e-9
-0.003, 1.939e-9
0.004, 1.977e-9
0.011, 2.019e-9
0.018, 2.061e-9
0.025, 2.102e-9
0.032, 2.142e-9
0.039, 2.190e-9
0.046, 2.234e-9
0.053, 2.275e-9
0.060, 2.322e-9
0.067, 2.368e-9
0.074, 2.417e-9
0.081, 2.466e-9
0.088, 2.517e-9
0.095, 2.568e-9
0.102, 2.635e-9
0.109, 2.827e-9
0.116, 3.472e-9
0.123, 4.409e-9
0.130, 4.277e-9
0.137, 3.694e-9
0.144, 3.169e-9
0.151, 2.970e-9
0.158, 2.925e-9
0.165, 2.927e-9
0.172, 2.940e-9
0.179, 2.959e-9
0.186, 2.982e-9
0.193, 2.998e-9
0.200, 3.020e-9
0.207, 3.037e-9
0.214, 3.058e-9
0.221, 3.076e-9
0.228, 3.093e-9
0.235, 3.112e-9
0.242, 3.132e-9
0.249, 3.153e-9
0.256, 3.173e-9
0.263, 3.193e-9
0.270, 3.214e-9
0.277, 3.237e-9
0.284, 3.260e-9
0.291, 3.280e-9
0.298, 3.302e-9
0.305, 3.327e-9
0.312, 3.352e-9
0.319, 3.379e-9
0.326, 3.408e-9
0.333, 3.438e-9
0.340, 3.466e-9
0.347, 3.497e-9
0.354, 3.530e-9
0.361, 3.558e-9
0.368, 3.588e-9
0.375, 3.624e-9
0.382, 3.662e-9
0.389, 3.699e-9
0.396, 3.738e-9
0.403, 3.774e-9
0.410, 3.803e-9
0.417, 3.844e-9
0.424, 3.887e-9
0.431, 3.930e-9
0.438, 3.973e-9
0.445, 4.016e-9
0.452, 4.061e-9
0.459, 4.101e-9
0.466, 4.150e-9
0.473, 4.202e-9
0.480, 4.250e-9
0.487, 4.297e-9
0.494, 4.347e-9
0.499, 4.210e-9
0.492, 3.714e-9
0.485, 3.412e-9
0.478, 3.175e-9
0.471, 2.972e-9
0.464, 2.802e-9
0.457, 2.641e-9
0.450, 2.503e-9
0.443, 2.373e-9
0.436, 2.251e-9
0.429, 2.135e-9
0.422, 2.037e-9
0.415, 1.937e-9
0.408, 1.842e-9
0.401, 1.748e-9
0.394, 1.658e-9
0.387, 1.577e-9
0.380, 1.496e-9
0.373, 1.415e-9
0.366, 1.337e-9
0.359, 1.264e-9
0.352, 1.191e-9
0.345, 1.121e-9
0.338, 1.054e-9
0.331, 9.889e-10
0.324, 9.228e-10
0.317, 8.583e-10
0.310, 7.934e-10
0.303, 7.324e-10
0.296, 6.691e-10
0.289, 6.127e-10
0.282, 5.537e-10
0.275, 4.942e-10
0.268, 4.303e-10
0.261, 3.764e-10
0.254, 3.217e-10
0.247, 2.687e-10
0.240, 2.102e-10
0.233, 1.570e-10
0.226, 1.067e-10
0.219, 5.297e-11
0.212, 4.289e-13
0.205, -5.884e-11
0.198, -1.113e-10
0.191, -1.644e-10
0.184, -2.200e-10
0.177, -2.823e-10
0.170, -3.371e-10
0.163, -3.921e-10
0.156, -4.508e-10
0.149, -5.129e-10
0.142, -5.790e-10
0.135, -6.401e-10
0.128, -7.032e-10
0.121, -7.725e-10
0.114, -8.364e-10
0.107, -9.013e-10
0.100, -9.745e-10
0.093, -1.050e-9
0.086, -1.116e-9
0.079, -1.190e-9
0.072, -1.267e-9
0.065, -1.334e-9
0.058, -1.407e-9
0.051, -1.477e-9
0.044, -1.553e-9
0.037, -1.616e-9
0.030, -1.681e-9
0.023, -1.747e-9
0.016, -1.808e-9
0.009, -1.866e-9
0.002, -1.925e-9
-0.005, -1.978e-9
-0.012, -2.032e-9
-0.019, -2.084e-9
-0.026, -2.144e-9
-0.033, -2.240e-9
-0.040, -2.347e-9
-0.047, -2.456e-9
-0.054, -2.567e-9
-0.061, -2.636e-9
-0.068, -2.579e-9
-0.075, -2.508e-9
-0.082, -2.461e-9
-0.089, -2.464e-9
-0.096, -2.442e-9
-0.103, -2.473e-9
-0.110, -2.480e-9
-0.117, -2.490e-9
-0.124, -2.511e-9
-0.131, -2.525e-9
-0.138, -2.542e-9
-0.145, -2.565e-9
-0.152, -2.585e-9
-0.159, -2.630e-9
-0.166, -2.625e-9
-0.173, -2.642e-9
-0.180, -2.662e-9
-0.187, -2.688e-9
-0.194, -2.702e-9
-0.201, -2.726e-9
-0.208, -2.743e-9
-0.215, -2.764e-9
-0.222, -2.783e-9
-0.229, -2.802e-9
-0.236, -2.823e-9
-0.243, -2.846e-9
-0.250, -2.865e-9
-0.257, -2.885e-9
-0.264, -2.903e-9
-0.271, -2.920e-9
-0.278, -2.937e-9
-0.285, -2.954e-9
-0.292, -2.973e-9
-0.299, -2.990e-9
-0.306, -3.004e-9
-0.313, -3.018e-9
-0.320, -3.031e-9
-0.327, -3.045e-9
-0.334, -3.056e-9
-0.341, -3.071e-9
-0.348, -3.081e-9
-0.355, -3.094e-9
-0.362, -3.105e-9
-0.369, -3.115e-9
-0.376, -3.128e-9
-0.383, -3.138e-9
-0.390, -3.150e-9
-0.397, -3.161e-9
-0.404, -3.173e-9
-0.411, -3.185e-9
-0.418, -3.197e-9
-0.425, -3.212e-9
-0.432, -3.224e-9
-0.439, -3.238e-9
-0.446, -3.253e-9
-0.453, -3.266e-9
-0.460, -3.280e-9
-0.467, -3.296e-9
-0.474, -3.312e-9
-0.481, -3.332e-9
-0.488, -3.349e-9
-0.495, -3.366e-9
-0.499, -3.376e-9