File: Fig 4/Fig 3c CV surface dark/CV_surface_dark_4.txt
Nov. 20, 2024   15:51:10
Cyclic Voltammetry
File: +12 2319-1 fto cv_cells_dark_surface_4.bin
Data Source:  Experiment
Instrument Model:  CHI920C
Ref. Electrode:
Header:
Note:

Init E (V) = -0.5
High E (V) = 0.5
Low E (V) = -0.5
Init P/N = P
Scan Rate (V/s) = 0.05
Segment = 2
Sample Interval (V) = 0.001
Quiet Time (sec) = 10
Sensitivity (A/V) = 1e-7

Results:

Channel 1:
Segment 1:
Ep = 0.129V
ip = 1.417e-9A
Ah = 4.636e-10C

Segment 2:
Ep = -0.061V
ip = -4.397e-10A
Ah = -7.637e-10C

Potential/V, Current/A

-0.500, -1.580e-9
-0.493, -1.317e-9
-0.486, -1.197e-9
-0.479, -1.109e-9
-0.472, -1.039e-9
-0.465, -9.675e-10
-0.458, -9.077e-10
-0.451, -8.524e-10
-0.444, -8.055e-10
-0.437, -7.518e-10
-0.430, -7.032e-10
-0.423, -6.551e-10
-0.416, -6.084e-10
-0.409, -5.655e-10
-0.402, -5.176e-10
-0.395, -4.690e-10
-0.388, -4.262e-10
-0.381, -3.862e-10
-0.374, -3.453e-10
-0.367, -3.060e-10
-0.360, -2.603e-10
-0.353, -2.168e-10
-0.346, -1.768e-10
-0.339, -1.353e-10
-0.332, -9.842e-11
-0.325, -5.942e-11
-0.318, -1.293e-11
-0.311, 3.114e-11
-0.304, 7.266e-11
-0.297, 1.110e-10
-0.290, 1.495e-10
-0.283, 1.865e-10
-0.276, 2.313e-10
-0.269, 2.709e-10
-0.262, 3.119e-10
-0.255, 3.522e-10
-0.248, 3.911e-10
-0.241, 4.334e-10
-0.234, 4.795e-10
-0.227, 5.254e-10
-0.220, 5.677e-10
-0.213, 6.090e-10
-0.206, 6.499e-10
-0.199, 6.915e-10
-0.192, 7.346e-10
-0.185, 7.764e-10
-0.178, 8.182e-10
-0.171, 8.594e-10
-0.164, 9.013e-10
-0.157, 9.448e-10
-0.150, 9.844e-10
-0.143, 1.026e-9
-0.136, 1.065e-9
-0.129, 1.107e-9
-0.122, 1.143e-9
-0.115, 1.184e-9
-0.108, 1.227e-9
-0.101, 1.270e-9
-0.094, 1.308e-9
-0.087, 1.347e-9
-0.080, 1.385e-9
-0.073, 1.426e-9
-0.066, 1.467e-9
-0.059, 1.503e-9
-0.052, 1.544e-9
-0.045, 1.583e-9
-0.038, 1.620e-9
-0.031, 1.659e-9
-0.024, 1.701e-9
-0.017, 1.742e-9
-0.010, 1.782e-9
-0.003, 1.824e-9
0.004, 1.862e-9
0.011, 1.908e-9
0.018, 1.951e-9
0.025, 1.992e-9
0.032, 2.037e-9
0.039, 2.077e-9
0.046, 2.118e-9
0.053, 2.165e-9
0.060, 2.210e-9
0.067, 2.255e-9
0.074, 2.304e-9
0.081, 2.351e-9
0.088, 2.400e-9
0.095, 2.452e-9
0.102, 2.512e-9
0.109, 2.615e-9
0.116, 2.966e-9
0.123, 3.694e-9
0.130, 3.936e-9
0.137, 3.759e-9
0.144, 3.342e-9
0.151, 3.012e-9
0.158, 2.870e-9
0.165, 2.838e-9
0.172, 2.839e-9
0.179, 2.854e-9
0.186, 2.873e-9
0.193, 2.896e-9
0.200, 2.917e-9
0.207, 2.934e-9
0.214, 2.955e-9
0.221, 2.973e-9
0.228, 2.994e-9
0.235, 3.013e-9
0.242, 3.033e-9
0.249, 3.056e-9
0.256, 3.071e-9
0.263, 3.090e-9
0.270, 3.109e-9
0.277, 3.133e-9
0.284, 3.158e-9
0.291, 3.187e-9
0.298, 3.209e-9
0.305, 3.234e-9
0.312, 3.264e-9
0.319, 3.289e-9
0.326, 3.316e-9
0.333, 3.342e-9
0.340, 3.375e-9
0.347, 3.406e-9
0.354, 3.435e-9
0.361, 3.473e-9
0.368, 3.522e-9
0.375, 3.567e-9
0.382, 3.598e-9
0.389, 3.621e-9
0.396, 3.698e-9
0.403, 3.681e-9
0.410, 3.708e-9
0.417, 3.755e-9
0.424, 3.793e-9
0.431, 3.830e-9
0.438, 3.873e-9
0.445, 3.918e-9
0.452, 3.958e-9
0.459, 4.005e-9
0.466, 4.047e-9
0.473, 4.091e-9
0.480, 4.143e-9
0.487, 4.193e-9
0.494, 4.242e-9
0.499, 4.101e-9
0.492, 3.607e-9
0.485, 3.313e-9
0.478, 3.074e-9
0.471, 2.878e-9
0.464, 2.707e-9
0.457, 2.552e-9
0.450, 2.410e-9
0.443, 2.281e-9
0.436, 2.162e-9
0.429, 2.054e-9
0.422, 1.953e-9
0.415, 1.850e-9
0.408, 1.758e-9
0.401, 1.663e-9
0.394, 1.582e-9
0.387, 1.499e-9
0.380, 1.417e-9
0.373, 1.340e-9
0.366, 1.263e-9
0.359, 1.189e-9
0.352, 1.120e-9
0.345, 1.053e-9
0.338, 9.855e-10
0.331, 9.186e-10
0.324, 8.519e-10
0.317, 7.902e-10
0.310, 7.297e-10
0.303, 6.645e-10
0.296, 6.088e-10
0.289, 5.494e-10
0.282, 4.884e-10
0.275, 4.242e-10
0.268, 3.711e-10
0.261, 3.168e-10
0.254, 2.650e-10
0.247, 2.037e-10
0.240, 1.521e-10
0.233, 1.045e-10
0.226, 5.161e-11
0.219, 2.340e-13
0.212, -5.991e-11
0.205, -1.088e-10
0.198, -1.623e-10
0.191, -2.134e-10
0.184, -2.719e-10
0.177, -3.282e-10
0.170, -3.788e-10
0.163, -4.348e-10
0.156, -4.933e-10
0.149, -5.576e-10
0.142, -6.129e-10
0.135, -6.729e-10
0.128, -7.354e-10
0.121, -8.023e-10
0.114, -8.609e-10
0.107, -9.276e-10
0.100, -1.000e-9
0.093, -1.070e-9
0.086, -1.137e-9
0.079, -1.208e-9
0.072, -1.284e-9
0.065, -1.352e-9
0.058, -1.422e-9
0.051, -1.495e-9
0.044, -1.566e-9
0.037, -1.631e-9
0.030, -1.694e-9
0.023, -1.764e-9
0.016, -1.822e-9
0.009, -1.885e-9
0.002, -1.941e-9
-0.005, -1.996e-9
-0.012, -2.049e-9
-0.019, -2.102e-9
-0.026, -2.166e-9
-0.033, -2.242e-9
-0.040, -2.333e-9
-0.047, -2.458e-9
-0.054, -2.567e-9
-0.061, -2.626e-9
-0.068, -2.594e-9
-0.075, -2.519e-9
-0.082, -2.466e-9
-0.089, -2.472e-9
-0.096, -2.500e-9
-0.103, -2.500e-9
-0.110, -2.518e-9
-0.117, -2.533e-9
-0.124, -2.556e-9
-0.131, -2.571e-9
-0.138, -2.599e-9
-0.145, -2.612e-9
-0.152, -2.638e-9
-0.159, -2.656e-9
-0.166, -2.674e-9
-0.173, -2.696e-9
-0.180, -2.720e-9
-0.187, -2.744e-9
-0.194, -2.761e-9
-0.201, -2.780e-9
-0.208, -2.797e-9
-0.215, -2.822e-9
-0.222, -2.844e-9
-0.229, -2.864e-9
-0.236, -2.883e-9
-0.243, -2.904e-9
-0.250, -2.922e-9
-0.257, -2.943e-9
-0.264, -2.963e-9
-0.271, -2.982e-9
-0.278, -3.001e-9
-0.285, -3.016e-9
-0.292, -3.035e-9
-0.299, -3.050e-9
-0.306, -3.066e-9
-0.313, -3.084e-9
-0.320, -3.097e-9
-0.327, -3.111e-9
-0.334, -3.122e-9
-0.341, -3.136e-9
-0.348, -3.147e-9
-0.355, -3.158e-9
-0.362, -3.170e-9
-0.369, -3.183e-9
-0.376, -3.194e-9
-0.383, -3.208e-9
-0.390, -3.219e-9
-0.397, -3.231e-9
-0.404, -3.244e-9
-0.411, -3.253e-9
-0.418, -3.266e-9
-0.425, -3.277e-9
-0.432, -3.289e-9
-0.439, -3.302e-9
-0.446, -3.322e-9
-0.453, -3.333e-9
-0.460, -3.349e-9
-0.467, -3.367e-9
-0.474, -3.381e-9
-0.481, -3.401e-9
-0.488, -3.416e-9
-0.495, -3.435e-9
-0.499, -3.444e-9