File: Fig 4/Fig 3c CV surface dark/CV_surface_dark_8.txt
Nov. 20, 2024   15:55:30
Cyclic Voltammetry
File: +12 2319-1 fto cv_cells_dark_surface_8.bin
Data Source:  Experiment
Instrument Model:  CHI920C
Ref. Electrode:
Header:
Note:

Init E (V) = -0.5
High E (V) = 0.5
Low E (V) = -0.5
Init P/N = P
Scan Rate (V/s) = 0.05
Segment = 2
Sample Interval (V) = 0.001
Quiet Time (sec) = 10
Sensitivity (A/V) = 1e-7

Results:

Channel 1:
Segment 1:
Ep = 0.121V
ip = 2.449e-9A
Ah = 5.235e-10C

Segment 2:

Potential/V, Current/A

-0.500, -1.294e-9
-0.493, -1.027e-9
-0.486, -9.064e-10
-0.479, -8.216e-10
-0.472, -7.493e-10
-0.465, -6.847e-10
-0.458, -6.280e-10
-0.451, -5.741e-10
-0.444, -5.208e-10
-0.437, -4.651e-10
-0.430, -4.177e-10
-0.423, -3.713e-10
-0.416, -3.303e-10
-0.409, -2.851e-10
-0.402, -2.359e-10
-0.395, -1.951e-10
-0.388, -1.520e-10
-0.381, -1.125e-10
-0.374, -7.317e-11
-0.367, -3.135e-11
-0.360, 1.593e-11
-0.353, 5.385e-11
-0.346, 9.489e-11
-0.339, 1.306e-10
-0.332, 1.649e-10
-0.325, 2.058e-10
-0.318, 2.482e-10
-0.311, 2.877e-10
-0.304, 3.283e-10
-0.297, 3.640e-10
-0.290, 4.004e-10
-0.283, 4.423e-10
-0.276, 4.875e-10
-0.269, 5.303e-10
-0.262, 5.690e-10
-0.255, 6.104e-10
-0.248, 6.485e-10
-0.241, 6.884e-10
-0.234, 7.317e-10
-0.227, 7.703e-10
-0.220, 8.107e-10
-0.213, 8.521e-10
-0.206, 8.940e-10
-0.199, 9.355e-10
-0.192, 9.761e-10
-0.185, 1.016e-9
-0.178, 1.058e-9
-0.171, 1.099e-9
-0.164, 1.135e-9
-0.157, 1.177e-9
-0.150, 1.221e-9
-0.143, 1.262e-9
-0.136, 1.302e-9
-0.129, 1.344e-9
-0.122, 1.386e-9
-0.115, 1.429e-9
-0.108, 1.472e-9
-0.101, 1.515e-9
-0.094, 1.556e-9
-0.087, 1.594e-9
-0.080, 1.633e-9
-0.073, 1.674e-9
-0.066, 1.718e-9
-0.059, 1.756e-9
-0.052, 1.798e-9
-0.045, 1.841e-9
-0.038, 1.880e-9
-0.031, 1.924e-9
-0.024, 1.966e-9
-0.017, 2.005e-9
-0.010, 2.049e-9
-0.003, 2.086e-9
0.004, 2.123e-9
0.011, 2.168e-9
0.018, 2.211e-9
0.025, 2.254e-9
0.032, 2.299e-9
0.039, 2.344e-9
0.046, 2.387e-9
0.053, 2.432e-9
0.060, 2.476e-9
0.067, 2.523e-9
0.074, 2.571e-9
0.081, 2.619e-9
0.088, 2.677e-9
0.095, 2.739e-9
0.102, 2.849e-9
0.109, 3.298e-9
0.116, 4.597e-9
0.123, 5.125e-9
0.130, 4.066e-9
0.137, 3.337e-9
0.144, 3.100e-9
0.151, 3.071e-9
0.158, 3.069e-9
0.165, 3.080e-9
0.172, 3.097e-9
0.179, 3.120e-9
0.186, 3.147e-9
0.193, 3.166e-9
0.200, 3.188e-9
0.207, 3.205e-9
0.214, 3.225e-9
0.221, 3.244e-9
0.228, 3.261e-9
0.235, 3.278e-9
0.242, 3.296e-9
0.249, 3.311e-9
0.256, 3.328e-9
0.263, 3.345e-9
0.270, 3.366e-9
0.277, 3.382e-9
0.284, 3.405e-9
0.291, 3.427e-9
0.298, 3.448e-9
0.305, 3.473e-9
0.312, 3.498e-9
0.319, 3.526e-9
0.326, 3.551e-9
0.333, 3.576e-9
0.340, 3.602e-9
0.347, 3.636e-9
0.354, 3.673e-9
0.361, 3.702e-9
0.368, 3.739e-9
0.375, 3.773e-9
0.382, 3.804e-9
0.389, 3.837e-9
0.396, 3.876e-9
0.403, 3.915e-9
0.410, 3.948e-9
0.417, 3.993e-9
0.424, 4.034e-9
0.431, 4.072e-9
0.438, 4.118e-9
0.445, 4.170e-9
0.452, 4.215e-9
0.459, 4.263e-9
0.466, 4.306e-9
0.473, 4.352e-9
0.480, 4.404e-9
0.487, 4.456e-9
0.494, 4.511e-9
0.499, 4.364e-9
0.492, 3.859e-9
0.485, 3.555e-9
0.478, 3.315e-9
0.471, 3.103e-9
0.464, 2.931e-9
0.457, 2.777e-9
0.450, 2.624e-9
0.443, 2.495e-9
0.436, 2.374e-9
0.429, 2.257e-9
0.422, 2.148e-9
0.415, 2.050e-9
0.408, 1.959e-9
0.401, 1.860e-9
0.394, 1.767e-9
0.387, 1.682e-9
0.380, 1.598e-9
0.373, 1.519e-9
0.366, 1.441e-9
0.359, 1.364e-9
0.352, 1.288e-9
0.345, 1.218e-9
0.338, 1.143e-9
0.331, 1.080e-9
0.324, 1.014e-9
0.317, 9.487e-10
0.310, 8.826e-10
0.303, 8.173e-10
0.296, 7.579e-10
0.289, 6.955e-10
0.282, 6.367e-10
0.275, 5.787e-10
0.268, 5.219e-10
0.261, 4.566e-10
0.254, 3.960e-10
0.247, 3.426e-10
0.240, 2.883e-10
0.233, 2.323e-10
0.226, 1.729e-10
0.219, 1.221e-10
0.212, 6.769e-11
0.205, 1.427e-11
0.198, -4.899e-11
0.191, -1.046e-10
0.184, -1.629e-10
0.177, -2.203e-10
0.170, -2.848e-10
0.163, -3.433e-10
0.156, -4.048e-10
0.149, -4.661e-10
0.142, -5.391e-10
0.135, -6.043e-10
0.128, -6.704e-10
0.121, -7.399e-10
0.114, -8.126e-10
0.107, -8.799e-10
0.100, -9.574e-10
0.093, -1.036e-9
0.086, -1.108e-9
0.079, -1.181e-9
0.072, -1.260e-9
0.065, -1.333e-9
0.058, -1.404e-9
0.051, -1.477e-9
0.044, -1.552e-9
0.037, -1.616e-9
0.030, -1.679e-9
0.023, -1.744e-9
0.016, -1.803e-9
0.009, -1.861e-9
0.002, -1.918e-9
-0.005, -1.965e-9
-0.012, -2.020e-9
-0.019, -2.075e-9
-0.026, -2.162e-9
-0.033, -2.264e-9
-0.040, -2.374e-9
-0.047, -2.469e-9
-0.054, -2.569e-9
-0.061, -2.586e-9
-0.068, -2.547e-9
-0.075, -2.478e-9
-0.082, -2.417e-9
-0.089, -2.416e-9
-0.096, -2.418e-9
-0.103, -2.415e-9
-0.110, -2.426e-9
-0.117, -2.452e-9
-0.124, -2.447e-9
-0.131, -2.469e-9
-0.138, -2.489e-9
-0.145, -2.505e-9
-0.152, -2.521e-9
-0.159, -2.539e-9
-0.166, -2.557e-9
-0.173, -2.576e-9
-0.180, -2.590e-9
-0.187, -2.612e-9
-0.194, -2.628e-9
-0.201, -2.649e-9
-0.208, -2.664e-9
-0.215, -2.685e-9
-0.222, -2.709e-9
-0.229, -2.728e-9
-0.236, -2.754e-9
-0.243, -2.771e-9
-0.250, -2.787e-9
-0.257, -2.806e-9
-0.264, -2.827e-9
-0.271, -2.846e-9
-0.278, -2.863e-9
-0.285, -2.877e-9
-0.292, -2.894e-9
-0.299, -2.908e-9
-0.306, -2.921e-9
-0.313, -2.939e-9
-0.320, -2.949e-9
-0.327, -2.963e-9
-0.334, -2.975e-9
-0.341, -2.987e-9
-0.348, -2.997e-9
-0.355, -3.009e-9
-0.362, -3.017e-9
-0.369, -3.030e-9
-0.376, -3.041e-9
-0.383, -3.050e-9
-0.390, -3.063e-9
-0.397, -3.074e-9
-0.404, -3.089e-9
-0.411, -3.101e-9
-0.418, -3.113e-9
-0.425, -3.125e-9
-0.432, -3.137e-9
-0.439, -3.149e-9
-0.446, -3.165e-9
-0.453, -3.179e-9
-0.460, -3.198e-9
-0.467, -3.216e-9
-0.474, -3.230e-9
-0.481, -3.248e-9
-0.488, -3.259e-9
-0.495, -3.279e-9
-0.499, -3.287e-9