File: Fig 4/Fig 3c CV surface dark/CV_surface_dark_2.txt
Nov. 20, 2024   15:48:58
Cyclic Voltammetry
File: +12 2319-1 fto cv_cells_dark_surface_2.bin
Data Source:  Experiment
Instrument Model:  CHI920C
Ref. Electrode:
Header:
Note:

Init E (V) = -0.5
High E (V) = 0.5
Low E (V) = -0.5
Init P/N = P
Scan Rate (V/s) = 0.05
Segment = 2
Sample Interval (V) = 0.001
Quiet Time (sec) = 10
Sensitivity (A/V) = 1e-7

Results:

Channel 1:
Segment 1:
Ep = 0.147V
ip = 6.350e-10A
Ah = 4.734e-10C

Segment 2:

Potential/V, Current/A

-0.500, -2.113e-9
-0.493, -1.853e-9
-0.486, -1.735e-9
-0.479, -1.643e-9
-0.472, -1.568e-9
-0.465, -1.500e-9
-0.458, -1.431e-9
-0.451, -1.371e-9
-0.444, -1.317e-9
-0.437, -1.264e-9
-0.430, -1.209e-9
-0.423, -1.156e-9
-0.416, -1.107e-9
-0.409, -1.061e-9
-0.402, -1.011e-9
-0.395, -9.599e-10
-0.388, -9.137e-10
-0.381, -8.675e-10
-0.374, -8.266e-10
-0.367, -7.879e-10
-0.360, -7.391e-10
-0.353, -6.953e-10
-0.346, -6.528e-10
-0.339, -6.098e-10
-0.332, -5.687e-10
-0.325, -5.212e-10
-0.318, -4.750e-10
-0.311, -4.311e-10
-0.304, -3.861e-10
-0.297, -3.484e-10
-0.290, -3.081e-10
-0.283, -2.610e-10
-0.276, -2.150e-10
-0.269, -1.738e-10
-0.262, -1.313e-10
-0.255, -8.867e-11
-0.248, -4.587e-11
-0.241, 2.671e-12
-0.234, 4.547e-11
-0.227, 8.719e-11
-0.220, 1.283e-10
-0.213, 1.688e-10
-0.206, 2.129e-10
-0.199, 2.586e-10
-0.192, 3.029e-10
-0.185, 3.445e-10
-0.178, 3.849e-10
-0.171, 4.244e-10
-0.164, 4.746e-10
-0.157, 5.216e-10
-0.150, 5.629e-10
-0.143, 6.075e-10
-0.136, 6.476e-10
-0.129, 6.879e-10
-0.122, 7.308e-10
-0.115, 7.719e-10
-0.108, 8.139e-10
-0.101, 8.598e-10
-0.094, 8.967e-10
-0.087, 9.402e-10
-0.080, 9.812e-10
-0.073, 1.020e-9
-0.066, 1.061e-9
-0.059, 1.099e-9
-0.052, 1.137e-9
-0.045, 1.175e-9
-0.038, 1.222e-9
-0.031, 1.264e-9
-0.024, 1.302e-9
-0.017, 1.344e-9
-0.010, 1.386e-9
-0.003, 1.432e-9
0.004, 1.475e-9
0.011, 1.517e-9
0.018, 1.563e-9
0.025, 1.607e-9
0.032, 1.650e-9
0.039, 1.697e-9
0.046, 1.745e-9
0.053, 1.789e-9
0.060, 1.836e-9
0.067, 1.880e-9
0.074, 1.930e-9
0.081, 1.979e-9
0.088, 2.026e-9
0.095, 2.075e-9
0.102, 2.124e-9
0.109, 2.187e-9
0.116, 2.279e-9
0.123, 2.435e-9
0.130, 2.548e-9
0.137, 2.692e-9
0.144, 2.848e-9
0.151, 2.864e-9
0.158, 2.772e-9
0.165, 2.670e-9
0.172, 2.599e-9
0.179, 2.564e-9
0.186, 2.554e-9
0.193, 2.555e-9
0.200, 2.569e-9
0.207, 2.579e-9
0.214, 2.596e-9
0.221, 2.615e-9
0.228, 2.638e-9
0.235, 2.661e-9
0.242, 2.686e-9
0.249, 2.708e-9
0.256, 2.730e-9
0.263, 2.755e-9
0.270, 2.780e-9
0.277, 2.801e-9
0.284, 2.825e-9
0.291, 2.848e-9
0.298, 2.872e-9
0.305, 2.900e-9
0.312, 2.927e-9
0.319, 2.953e-9
0.326, 2.980e-9
0.333, 3.007e-9
0.340, 3.039e-9
0.347, 3.065e-9
0.354, 3.092e-9
0.361, 3.123e-9
0.368, 3.158e-9
0.375, 3.194e-9
0.382, 3.226e-9
0.389, 3.256e-9
0.396, 3.294e-9
0.403, 3.327e-9
0.410, 3.357e-9
0.417, 3.403e-9
0.424, 3.436e-9
0.431, 3.478e-9
0.438, 3.515e-9
0.445, 3.553e-9
0.452, 3.589e-9
0.459, 3.636e-9
0.466, 3.684e-9
0.473, 3.726e-9
0.480, 3.769e-9
0.487, 3.811e-9
0.494, 3.861e-9
0.499, 3.738e-9
0.492, 3.255e-9
0.485, 2.962e-9
0.478, 2.734e-9
0.471, 2.539e-9
0.464, 2.370e-9
0.457, 2.221e-9
0.450, 2.085e-9
0.443, 1.964e-9
0.436, 1.849e-9
0.429, 1.741e-9
0.422, 1.638e-9
0.415, 1.545e-9
0.408, 1.461e-9
0.401, 1.369e-9
0.394, 1.284e-9
0.387, 1.205e-9
0.380, 1.128e-9
0.373, 1.058e-9
0.366, 9.888e-10
0.359, 9.177e-10
0.352, 8.491e-10
0.345, 7.811e-10
0.338, 7.182e-10
0.331, 6.551e-10
0.324, 5.954e-10
0.317, 5.338e-10
0.310, 4.681e-10
0.303, 4.053e-10
0.296, 3.521e-10
0.289, 2.964e-10
0.282, 2.431e-10
0.275, 1.847e-10
0.268, 1.379e-10
0.261, 8.621e-11
0.254, 3.416e-11
0.247, -1.770e-11
0.240, -7.317e-11
0.233, -1.194e-10
0.226, -1.677e-10
0.219, -2.168e-10
0.212, -2.698e-10
0.205, -3.183e-10
0.198, -3.627e-10
0.191, -4.105e-10
0.184, -4.602e-10
0.177, -5.101e-10
0.170, -5.661e-10
0.163, -6.121e-10
0.156, -6.621e-10
0.149, -7.138e-10
0.142, -7.676e-10
0.135, -8.199e-10
0.128, -8.687e-10
0.121, -9.252e-10
0.114, -9.831e-10
0.107, -1.047e-9
0.100, -1.106e-9
0.093, -1.166e-9
0.086, -1.228e-9
0.079, -1.297e-9
0.072, -1.356e-9
0.065, -1.422e-9
0.058, -1.492e-9
0.051, -1.558e-9
0.044, -1.623e-9
0.037, -1.684e-9
0.030, -1.753e-9
0.023, -1.813e-9
0.016, -1.877e-9
0.009, -1.938e-9
0.002, -1.998e-9
-0.005, -2.053e-9
-0.012, -2.112e-9
-0.019, -2.163e-9
-0.026, -2.219e-9
-0.033, -2.274e-9
-0.040, -2.327e-9
-0.047, -2.394e-9
-0.054, -2.467e-9
-0.061, -2.541e-9
-0.068, -2.560e-9
-0.075, -2.578e-9
-0.082, -2.579e-9
-0.089, -2.593e-9
-0.096, -2.630e-9
-0.103, -2.661e-9
-0.110, -2.690e-9
-0.117, -2.713e-9
-0.124, -2.746e-9
-0.131, -2.767e-9
-0.138, -2.792e-9
-0.145, -2.820e-9
-0.152, -2.850e-9
-0.159, -2.870e-9
-0.166, -2.894e-9
-0.173, -2.919e-9
-0.180, -2.942e-9
-0.187, -2.967e-9
-0.194, -2.992e-9
-0.201, -3.014e-9
-0.208, -3.032e-9
-0.215, -3.055e-9
-0.222, -3.078e-9
-0.229, -3.098e-9
-0.236, -3.121e-9
-0.243, -3.145e-9
-0.250, -3.162e-9
-0.257, -3.183e-9
-0.264, -3.202e-9
-0.271, -3.227e-9
-0.278, -3.246e-9
-0.285, -3.260e-9
-0.292, -3.278e-9
-0.299, -3.298e-9
-0.306, -3.316e-9
-0.313, -3.339e-9
-0.320, -3.354e-9
-0.327, -3.369e-9
-0.334, -3.384e-9
-0.341, -3.400e-9
-0.348, -3.414e-9
-0.355, -3.425e-9
-0.362, -3.442e-9
-0.369, -3.453e-9
-0.376, -3.465e-9
-0.383, -3.479e-9
-0.390, -3.490e-9
-0.397, -3.499e-9
-0.404, -3.511e-9
-0.411, -3.525e-9
-0.418, -3.537e-9
-0.425, -3.550e-9
-0.432, -3.566e-9
-0.439, -3.579e-9
-0.446, -3.596e-9
-0.453, -3.611e-9
-0.460, -3.630e-9
-0.467, -3.647e-9
-0.474, -3.664e-9
-0.481, -3.684e-9
-0.488, -3.704e-9
-0.495, -3.725e-9
-0.499, -3.733e-9