File: Fig 4/Fig 3c CV surface dark/CV_surface_dark_10.txt
Nov. 20, 2024   15:57:40
Cyclic Voltammetry
File: +12 2319-1 fto cv_cells_dark_surface_10.bin
Data Source:  Experiment
Instrument Model:  CHI920C
Ref. Electrode:
Header:
Note:

Init E (V) = -0.5
High E (V) = 0.5
Low E (V) = -0.5
Init P/N = P
Scan Rate (V/s) = 0.05
Segment = 2
Sample Interval (V) = 0.001
Quiet Time (sec) = 10
Sensitivity (A/V) = 1e-7

Results:

Channel 1:
Segment 1:
Ep = 0.120V
ip = 2.532e-9A
Ah = 5.479e-10C

Segment 2:

Potential/V, Current/A

-0.500, -1.254e-9
-0.493, -9.840e-10
-0.486, -8.678e-10
-0.479, -7.872e-10
-0.472, -7.120e-10
-0.465, -6.476e-10
-0.458, -5.911e-10
-0.451, -5.360e-10
-0.444, -4.797e-10
-0.437, -4.296e-10
-0.430, -3.813e-10
-0.423, -3.374e-10
-0.416, -2.931e-10
-0.409, -2.427e-10
-0.402, -1.997e-10
-0.395, -1.572e-10
-0.388, -1.167e-10
-0.381, -7.999e-11
-0.374, -3.593e-11
-0.367, 9.007e-12
-0.360, 4.946e-11
-0.353, 8.709e-11
-0.346, 1.275e-10
-0.339, 1.622e-10
-0.332, 2.006e-10
-0.325, 2.453e-10
-0.318, 2.849e-10
-0.311, 3.236e-10
-0.304, 3.632e-10
-0.297, 3.972e-10
-0.290, 4.355e-10
-0.283, 4.823e-10
-0.276, 5.239e-10
-0.269, 5.610e-10
-0.262, 6.035e-10
-0.255, 6.417e-10
-0.248, 6.807e-10
-0.241, 7.242e-10
-0.234, 7.659e-10
-0.227, 8.042e-10
-0.220, 8.459e-10
-0.213, 8.861e-10
-0.206, 9.270e-10
-0.199, 9.720e-10
-0.192, 1.008e-9
-0.185, 1.049e-9
-0.178, 1.090e-9
-0.171, 1.128e-9
-0.164, 1.167e-9
-0.157, 1.211e-9
-0.150, 1.252e-9
-0.143, 1.291e-9
-0.136, 1.335e-9
-0.129, 1.376e-9
-0.122, 1.419e-9
-0.115, 1.462e-9
-0.108, 1.501e-9
-0.101, 1.547e-9
-0.094, 1.588e-9
-0.087, 1.625e-9
-0.080, 1.667e-9
-0.073, 1.710e-9
-0.066, 1.749e-9
-0.059, 1.791e-9
-0.052, 1.832e-9
-0.045, 1.876e-9
-0.038, 1.916e-9
-0.031, 1.960e-9
-0.024, 1.999e-9
-0.017, 2.041e-9
-0.010, 2.081e-9
-0.003, 2.119e-9
0.004, 2.160e-9
0.011, 2.206e-9
0.018, 2.246e-9
0.025, 2.291e-9
0.032, 2.337e-9
0.039, 2.379e-9
0.046, 2.426e-9
0.053, 2.468e-9
0.060, 2.515e-9
0.067, 2.561e-9
0.074, 2.606e-9
0.081, 2.659e-9
0.088, 2.719e-9
0.095, 2.783e-9
0.102, 2.918e-9
0.109, 3.479e-9
0.116, 4.926e-9
0.123, 5.075e-9
0.130, 3.944e-9
0.137, 3.314e-9
0.144, 3.135e-9
0.151, 3.106e-9
0.158, 3.109e-9
0.165, 3.130e-9
0.172, 3.148e-9
0.179, 3.172e-9
0.186, 3.190e-9
0.193, 3.214e-9
0.200, 3.236e-9
0.207, 3.253e-9
0.214, 3.270e-9
0.221, 3.287e-9
0.228, 3.304e-9
0.235, 3.320e-9
0.242, 3.339e-9
0.249, 3.355e-9
0.256, 3.371e-9
0.263, 3.392e-9
0.270, 3.410e-9
0.277, 3.428e-9
0.284, 3.448e-9
0.291, 3.469e-9
0.298, 3.491e-9
0.305, 3.518e-9
0.312, 3.541e-9
0.319, 3.564e-9
0.326, 3.587e-9
0.333, 3.616e-9
0.340, 3.652e-9
0.347, 3.681e-9
0.354, 3.717e-9
0.361, 3.748e-9
0.368, 3.783e-9
0.375, 3.814e-9
0.382, 3.848e-9
0.389, 3.882e-9
0.396, 3.922e-9
0.403, 3.957e-9
0.410, 3.990e-9
0.417, 4.035e-9
0.424, 4.073e-9
0.431, 4.117e-9
0.438, 4.165e-9
0.445, 4.210e-9
0.452, 4.257e-9
0.459, 4.303e-9
0.466, 4.347e-9
0.473, 4.402e-9
0.480, 4.451e-9
0.487, 4.503e-9
0.494, 4.557e-9
0.499, 4.406e-9
0.492, 3.898e-9
0.485, 3.589e-9
0.478, 3.347e-9
0.471, 3.139e-9
0.464, 2.965e-9
0.457, 2.807e-9
0.450, 2.657e-9
0.443, 2.526e-9
0.436, 2.404e-9
0.429, 2.287e-9
0.422, 2.178e-9
0.415, 2.075e-9
0.408, 1.983e-9
0.401, 1.885e-9
0.394, 1.794e-9
0.387, 1.708e-9
0.380, 1.621e-9
0.373, 1.541e-9
0.366, 1.465e-9
0.359, 1.383e-9
0.352, 1.308e-9
0.345, 1.238e-9
0.338, 1.162e-9
0.331, 1.097e-9
0.324, 1.032e-9
0.317, 9.686e-10
0.310, 9.017e-10
0.303, 8.362e-10
0.296, 7.745e-10
0.289, 7.140e-10
0.282, 6.517e-10
0.275, 5.934e-10
0.268, 5.361e-10
0.261, 4.726e-10
0.254, 4.115e-10
0.247, 3.577e-10
0.240, 3.025e-10
0.233, 2.456e-10
0.226, 1.850e-10
0.219, 1.339e-10
0.212, 7.900e-11
0.205, 2.607e-11
0.198, -3.856e-11
0.191, -9.510e-11
0.184, -1.542e-10
0.177, -2.128e-10
0.170, -2.774e-10
0.163, -3.402e-10
0.156, -4.009e-10
0.149, -4.630e-10
0.142, -5.348e-10
0.135, -6.022e-10
0.128, -6.721e-10
0.121, -7.421e-10
0.114, -8.159e-10
0.107, -8.872e-10
0.100, -9.653e-10
0.093, -1.048e-9
0.086, -1.118e-9
0.079, -1.195e-9
0.072, -1.277e-9
0.065, -1.347e-9
0.058, -1.421e-9
0.051, -1.494e-9
0.044, -1.567e-9
0.037, -1.630e-9
0.030, -1.693e-9
0.023, -1.761e-9
0.016, -1.817e-9
0.009, -1.876e-9
0.002, -1.930e-9
-0.005, -1.979e-9
-0.012, -2.033e-9
-0.019, -2.091e-9
-0.026, -2.173e-9
-0.033, -2.267e-9
-0.040, -2.366e-9
-0.047, -2.488e-9
-0.054, -2.577e-9
-0.061, -2.558e-9
-0.068, -2.504e-9
-0.075, -2.464e-9
-0.082, -2.417e-9
-0.089, -2.414e-9
-0.096, -2.421e-9
-0.103, -2.421e-9
-0.110, -2.430e-9
-0.117, -2.436e-9
-0.124, -2.444e-9
-0.131, -2.456e-9
-0.138, -2.477e-9
-0.145, -2.491e-9
-0.152, -2.505e-9
-0.159, -2.524e-9
-0.166, -2.539e-9
-0.173, -2.556e-9
-0.180, -2.574e-9
-0.187, -2.597e-9
-0.194, -2.619e-9
-0.201, -2.635e-9
-0.208, -2.653e-9
-0.215, -2.672e-9
-0.222, -2.693e-9
-0.229, -2.713e-9
-0.236, -2.739e-9
-0.243, -2.755e-9
-0.250, -2.775e-9
-0.257, -2.789e-9
-0.264, -2.810e-9
-0.271, -2.825e-9
-0.278, -2.847e-9
-0.285, -2.862e-9
-0.292, -2.877e-9
-0.299, -2.892e-9
-0.306, -2.906e-9
-0.313, -2.920e-9
-0.320, -2.930e-9
-0.327, -2.943e-9
-0.334, -2.953e-9
-0.341, -2.966e-9
-0.348, -2.978e-9
-0.355, -2.988e-9
-0.362, -3.000e-9
-0.369, -3.011e-9
-0.376, -3.019e-9
-0.383, -3.030e-9
-0.390, -3.041e-9
-0.397, -3.051e-9
-0.404, -3.066e-9
-0.411, -3.078e-9
-0.418, -3.091e-9
-0.425, -3.104e-9
-0.432, -3.118e-9
-0.439, -3.129e-9
-0.446, -3.142e-9
-0.453, -3.157e-9
-0.460, -3.174e-9
-0.467, -3.189e-9
-0.474, -3.206e-9
-0.481, -3.224e-9
-0.488, -3.240e-9
-0.495, -3.255e-9
-0.499, -3.264e-9