File: Fig 4/Fig 3c CV surface dark/CV_surface_dark_9.txt
Nov. 20, 2024   15:56:34
Cyclic Voltammetry
File: +12 2319-1 fto cv_cells_dark_surface_9.bin
Data Source:  Experiment
Instrument Model:  CHI920C
Ref. Electrode:
Header:
Note:

Init E (V) = -0.5
High E (V) = 0.5
Low E (V) = -0.5
Init P/N = P
Scan Rate (V/s) = 0.05
Segment = 2
Sample Interval (V) = 0.001
Quiet Time (sec) = 10
Sensitivity (A/V) = 1e-7

Results:

Channel 1:
Segment 1:
Ep = 0.120V
ip = 2.494e-9A
Ah = 4.932e-10C

Segment 2:

Potential/V, Current/A

-0.500, -1.272e-9
-0.493, -1.002e-9
-0.486, -8.842e-10
-0.479, -8.030e-10
-0.472, -7.281e-10
-0.465, -6.633e-10
-0.458, -6.068e-10
-0.451, -5.538e-10
-0.444, -4.952e-10
-0.437, -4.441e-10
-0.430, -3.974e-10
-0.423, -3.526e-10
-0.416, -3.108e-10
-0.409, -2.625e-10
-0.402, -2.153e-10
-0.395, -1.741e-10
-0.388, -1.322e-10
-0.381, -9.218e-11
-0.374, -5.221e-11
-0.367, -7.370e-12
-0.360, 3.562e-11
-0.353, 7.305e-11
-0.346, 1.123e-10
-0.339, 1.493e-10
-0.332, 1.841e-10
-0.325, 2.295e-10
-0.318, 2.690e-10
-0.311, 3.080e-10
-0.304, 3.464e-10
-0.297, 3.837e-10
-0.290, 4.210e-10
-0.283, 4.637e-10
-0.276, 5.090e-10
-0.269, 5.500e-10
-0.262, 5.906e-10
-0.255, 6.305e-10
-0.248, 6.683e-10
-0.241, 7.103e-10
-0.234, 7.504e-10
-0.227, 7.883e-10
-0.220, 8.309e-10
-0.213, 8.712e-10
-0.206, 9.134e-10
-0.199, 9.563e-10
-0.192, 9.956e-10
-0.185, 1.036e-9
-0.178, 1.077e-9
-0.171, 1.117e-9
-0.164, 1.156e-9
-0.157, 1.199e-9
-0.150, 1.240e-9
-0.143, 1.281e-9
-0.136, 1.323e-9
-0.129, 1.366e-9
-0.122, 1.407e-9
-0.115, 1.448e-9
-0.108, 1.491e-9
-0.101, 1.535e-9
-0.094, 1.574e-9
-0.087, 1.614e-9
-0.080, 1.652e-9
-0.073, 1.696e-9
-0.066, 1.737e-9
-0.059, 1.778e-9
-0.052, 1.820e-9
-0.045, 1.862e-9
-0.038, 1.904e-9
-0.031, 1.945e-9
-0.024, 1.985e-9
-0.017, 2.028e-9
-0.010, 2.069e-9
-0.003, 2.106e-9
0.004, 2.145e-9
0.011, 2.192e-9
0.018, 2.235e-9
0.025, 2.278e-9
0.032, 2.324e-9
0.039, 2.364e-9
0.046, 2.411e-9
0.053, 2.455e-9
0.060, 2.500e-9
0.067, 2.547e-9
0.074, 2.591e-9
0.081, 2.641e-9
0.088, 2.701e-9
0.095, 2.763e-9
0.102, 2.878e-9
0.109, 3.371e-9
0.116, 4.693e-9
0.123, 5.050e-9
0.130, 4.017e-9
0.137, 3.341e-9
0.144, 3.153e-9
0.151, 3.109e-9
0.158, 3.104e-9
0.165, 3.112e-9
0.172, 3.128e-9
0.179, 3.149e-9
0.186, 3.175e-9
0.193, 3.196e-9
0.200, 3.215e-9
0.207, 3.230e-9
0.214, 3.251e-9
0.221, 3.267e-9
0.228, 3.288e-9
0.235, 3.304e-9
0.242, 3.319e-9
0.249, 3.334e-9
0.256, 3.352e-9
0.263, 3.370e-9
0.270, 3.392e-9
0.277, 3.410e-9
0.284, 3.431e-9
0.291, 3.451e-9
0.298, 3.474e-9
0.305, 3.496e-9
0.312, 3.528e-9
0.319, 3.547e-9
0.326, 3.569e-9
0.333, 3.595e-9
0.340, 3.628e-9
0.347, 3.661e-9
0.354, 3.694e-9
0.361, 3.729e-9
0.368, 3.760e-9
0.375, 3.792e-9
0.382, 3.827e-9
0.389, 3.863e-9
0.396, 3.901e-9
0.403, 3.940e-9
0.410, 3.970e-9
0.417, 4.018e-9
0.424, 4.057e-9
0.431, 4.097e-9
0.438, 4.146e-9
0.445, 4.192e-9
0.452, 4.238e-9
0.459, 4.283e-9
0.466, 4.327e-9
0.473, 4.378e-9
0.480, 4.430e-9
0.487, 4.481e-9
0.494, 4.537e-9
0.499, 4.390e-9
0.492, 3.883e-9
0.485, 3.574e-9
0.478, 3.334e-9
0.471, 3.124e-9
0.464, 2.952e-9
0.457, 2.797e-9
0.450, 2.645e-9
0.443, 2.516e-9
0.436, 2.391e-9
0.429, 2.276e-9
0.422, 2.169e-9
0.415, 2.065e-9
0.408, 1.973e-9
0.401, 1.875e-9
0.394, 1.784e-9
0.387, 1.698e-9
0.380, 1.612e-9
0.373, 1.531e-9
0.366, 1.454e-9
0.359, 1.375e-9
0.352, 1.301e-9
0.345, 1.229e-9
0.338, 1.155e-9
0.331, 1.091e-9
0.324, 1.026e-9
0.317, 9.606e-10
0.310, 8.945e-10
0.303, 8.293e-10
0.296, 7.676e-10
0.289, 7.061e-10
0.282, 6.447e-10
0.275, 5.885e-10
0.268, 5.307e-10
0.261, 4.650e-10
0.254, 4.047e-10
0.247, 3.507e-10
0.240, 2.976e-10
0.233, 2.405e-10
0.226, 1.797e-10
0.219, 1.290e-10
0.212, 7.490e-11
0.205, 1.954e-11
0.198, -4.207e-11
0.191, -9.890e-11
0.184, -1.561e-10
0.177, -2.147e-10
0.170, -2.789e-10
0.163, -3.406e-10
0.156, -3.987e-10
0.149, -4.641e-10
0.142, -5.346e-10
0.135, -6.010e-10
0.128, -6.691e-10
0.121, -7.402e-10
0.114, -8.125e-10
0.107, -8.818e-10
0.100, -9.597e-10
0.093, -1.038e-9
0.086, -1.111e-9
0.079, -1.189e-9
0.072, -1.267e-9
0.065, -1.339e-9
0.058, -1.410e-9
0.051, -1.483e-9
0.044, -1.556e-9
0.037, -1.620e-9
0.030, -1.685e-9
0.023, -1.751e-9
0.016, -1.808e-9
0.009, -1.866e-9
0.002, -1.920e-9
-0.005, -1.972e-9
-0.012, -2.026e-9
-0.019, -2.084e-9
-0.026, -2.169e-9
-0.033, -2.272e-9
-0.040, -2.387e-9
-0.047, -2.506e-9
-0.054, -2.587e-9
-0.061, -2.590e-9
-0.068, -2.511e-9
-0.075, -2.449e-9
-0.082, -2.420e-9
-0.089, -2.393e-9
-0.096, -2.404e-9
-0.103, -2.409e-9
-0.110, -2.426e-9
-0.117, -2.430e-9
-0.124, -2.452e-9
-0.131, -2.461e-9
-0.138, -2.477e-9
-0.145, -2.495e-9
-0.152, -2.513e-9
-0.159, -2.531e-9
-0.166, -2.546e-9
-0.173, -2.562e-9
-0.180, -2.581e-9
-0.187, -2.602e-9
-0.194, -2.621e-9
-0.201, -2.641e-9
-0.208, -2.658e-9
-0.215, -2.678e-9
-0.222, -2.699e-9
-0.229, -2.721e-9
-0.236, -2.742e-9
-0.243, -2.765e-9
-0.250, -2.781e-9
-0.257, -2.797e-9
-0.264, -2.819e-9
-0.271, -2.835e-9
-0.278, -2.854e-9
-0.285, -2.869e-9
-0.292, -2.884e-9
-0.299, -2.896e-9
-0.306, -2.909e-9
-0.313, -2.926e-9
-0.320, -2.938e-9
-0.327, -2.952e-9
-0.334, -2.964e-9
-0.341, -2.979e-9
-0.348, -2.992e-9
-0.355, -2.996e-9
-0.362, -3.008e-9
-0.369, -3.019e-9
-0.376, -3.030e-9
-0.383, -3.040e-9
-0.390, -3.052e-9
-0.397, -3.062e-9
-0.404, -3.075e-9
-0.411, -3.090e-9
-0.418, -3.103e-9
-0.425, -3.115e-9
-0.432, -3.128e-9
-0.439, -3.139e-9
-0.446, -3.154e-9
-0.453, -3.169e-9
-0.460, -3.186e-9
-0.467, -3.203e-9
-0.474, -3.220e-9
-0.481, -3.235e-9
-0.488, -3.251e-9
-0.495, -3.268e-9
-0.499, -3.275e-9