File: Fig 4/Fig 3c CV surface dark/CV_surface_dark_1.txt
Nov. 20, 2024   15:47:57
Cyclic Voltammetry
File: +12 2319-1 fto cv_cells_dark_surface_1.bin
Data Source:  Experiment
Instrument Model:  CHI920C
Ref. Electrode:
Header:
Note:

Init E (V) = -0.5
High E (V) = 0.5
Low E (V) = -0.5
Init P/N = P
Scan Rate (V/s) = 0.05
Segment = 2
Sample Interval (V) = 0.001
Quiet Time (sec) = 10
Sensitivity (A/V) = 1e-7

Results:

Channel 1:
Segment 1:

Segment 2:

Potential/V, Current/A

-0.500, -3.358e-9
-0.493, -3.081e-9
-0.486, -2.936e-9
-0.479, -2.821e-9
-0.472, -2.721e-9
-0.465, -2.628e-9
-0.458, -2.546e-9
-0.451, -2.465e-9
-0.444, -2.389e-9
-0.437, -2.314e-9
-0.430, -2.248e-9
-0.423, -2.176e-9
-0.416, -2.115e-9
-0.409, -2.049e-9
-0.402, -1.985e-9
-0.395, -1.924e-9
-0.388, -1.865e-9
-0.381, -1.804e-9
-0.374, -1.748e-9
-0.367, -1.690e-9
-0.360, -1.634e-9
-0.353, -1.580e-9
-0.346, -1.527e-9
-0.339, -1.467e-9
-0.332, -1.413e-9
-0.325, -1.358e-9
-0.318, -1.309e-9
-0.311, -1.253e-9
-0.304, -1.193e-9
-0.297, -1.143e-9
-0.290, -1.091e-9
-0.283, -1.041e-9
-0.276, -9.810e-10
-0.269, -9.303e-10
-0.262, -8.777e-10
-0.255, -8.288e-10
-0.248, -7.786e-10
-0.241, -7.254e-10
-0.234, -6.725e-10
-0.227, -6.249e-10
-0.220, -5.751e-10
-0.213, -5.202e-10
-0.206, -4.648e-10
-0.199, -4.149e-10
-0.192, -3.650e-10
-0.185, -3.197e-10
-0.178, -2.653e-10
-0.171, -2.107e-10
-0.164, -1.625e-10
-0.157, -1.125e-10
-0.150, -6.664e-11
-0.143, -7.565e-12
-0.136, 4.196e-11
-0.129, 9.323e-11
-0.122, 1.396e-10
-0.115, 1.823e-10
-0.108, 2.362e-10
-0.101, 2.913e-10
-0.094, 3.367e-10
-0.087, 3.846e-10
-0.080, 4.284e-10
-0.073, 4.866e-10
-0.066, 5.387e-10
-0.059, 5.861e-10
-0.052, 6.350e-10
-0.045, 6.808e-10
-0.038, 7.304e-10
-0.031, 7.790e-10
-0.024, 8.245e-10
-0.017, 8.761e-10
-0.010, 9.213e-10
-0.003, 9.749e-10
0.004, 1.019e-9
0.011, 1.068e-9
0.018, 1.112e-9
0.025, 1.154e-9
0.032, 1.207e-9
0.039, 1.254e-9
0.046, 1.302e-9
0.053, 1.349e-9
0.060, 1.399e-9
0.067, 1.448e-9
0.074, 1.494e-9
0.081, 1.542e-9
0.088, 1.593e-9
0.095, 1.639e-9
0.102, 1.699e-9
0.109, 1.787e-9
0.116, 1.911e-9
0.123, 1.976e-9
0.130, 1.985e-9
0.137, 1.997e-9
0.144, 2.008e-9
0.151, 2.006e-9
0.158, 2.006e-9
0.165, 2.014e-9
0.172, 2.033e-9
0.179, 2.052e-9
0.186, 2.072e-9
0.193, 2.108e-9
0.200, 2.115e-9
0.207, 2.136e-9
0.214, 2.162e-9
0.221, 2.186e-9
0.228, 2.213e-9
0.235, 2.237e-9
0.242, 2.258e-9
0.249, 2.281e-9
0.256, 2.308e-9
0.263, 2.333e-9
0.270, 2.357e-9
0.277, 2.382e-9
0.284, 2.403e-9
0.291, 2.430e-9
0.298, 2.452e-9
0.305, 2.477e-9
0.312, 2.504e-9
0.319, 2.527e-9
0.326, 2.554e-9
0.333, 2.578e-9
0.340, 2.603e-9
0.347, 2.627e-9
0.354, 2.661e-9
0.361, 2.690e-9
0.368, 2.718e-9
0.375, 2.746e-9
0.382, 2.776e-9
0.389, 2.807e-9
0.396, 2.835e-9
0.403, 2.866e-9
0.410, 2.891e-9
0.417, 2.927e-9
0.424, 2.960e-9
0.431, 2.992e-9
0.438, 3.029e-9
0.445, 3.063e-9
0.452, 3.094e-9
0.459, 3.133e-9
0.466, 3.174e-9
0.473, 3.217e-9
0.480, 3.257e-9
0.487, 3.295e-9
0.494, 3.338e-9
0.499, 3.218e-9
0.492, 2.758e-9
0.485, 2.470e-9
0.478, 2.240e-9
0.471, 2.051e-9
0.464, 1.884e-9
0.457, 1.736e-9
0.450, 1.600e-9
0.443, 1.483e-9
0.436, 1.365e-9
0.429, 1.259e-9
0.422, 1.157e-9
0.415, 1.070e-9
0.408, 9.887e-10
0.401, 8.996e-10
0.394, 8.191e-10
0.387, 7.451e-10
0.380, 6.666e-10
0.373, 5.981e-10
0.366, 5.276e-10
0.359, 4.540e-10
0.352, 3.897e-10
0.345, 3.299e-10
0.338, 2.706e-10
0.331, 2.063e-10
0.324, 1.507e-10
0.317, 9.703e-11
0.310, 4.254e-11
0.303, -1.195e-11
0.296, -6.898e-11
0.289, -1.176e-10
0.282, -1.651e-10
0.275, -2.129e-10
0.268, -2.645e-10
0.261, -3.131e-10
0.254, -3.558e-10
0.247, -3.985e-10
0.240, -4.422e-10
0.233, -4.877e-10
0.226, -5.353e-10
0.219, -5.764e-10
0.212, -6.166e-10
0.205, -6.545e-10
0.198, -6.955e-10
0.191, -7.358e-10
0.184, -7.792e-10
0.177, -8.178e-10
0.170, -8.561e-10
0.163, -8.946e-10
0.156, -9.366e-10
0.149, -9.763e-10
0.142, -1.022e-9
0.135, -1.065e-9
0.128, -1.107e-9
0.121, -1.150e-9
0.114, -1.195e-9
0.107, -1.245e-9
0.100, -1.297e-9
0.093, -1.343e-9
0.086, -1.390e-9
0.079, -1.443e-9
0.072, -1.502e-9
0.065, -1.560e-9
0.058, -1.614e-9
0.051, -1.667e-9
0.044, -1.727e-9
0.037, -1.787e-9
0.030, -1.845e-9
0.023, -1.907e-9
0.016, -1.966e-9
0.009, -2.027e-9
0.002, -2.086e-9
-0.005, -2.143e-9
-0.012, -2.200e-9
-0.019, -2.261e-9
-0.026, -2.315e-9
-0.033, -2.372e-9
-0.040, -2.424e-9
-0.047, -2.486e-9
-0.054, -2.535e-9
-0.061, -2.584e-9
-0.068, -2.636e-9
-0.075, -2.674e-9
-0.082, -2.718e-9
-0.089, -2.771e-9
-0.096, -2.798e-9
-0.103, -2.844e-9
-0.110, -2.883e-9
-0.117, -2.919e-9
-0.124, -2.955e-9
-0.131, -2.988e-9
-0.138, -3.021e-9
-0.145, -3.053e-9
-0.152, -3.084e-9
-0.159, -3.112e-9
-0.166, -3.140e-9
-0.173, -3.170e-9
-0.180, -3.198e-9
-0.187, -3.228e-9
-0.194, -3.254e-9
-0.201, -3.278e-9
-0.208, -3.300e-9
-0.215, -3.327e-9
-0.222, -3.355e-9
-0.229, -3.378e-9
-0.236, -3.404e-9
-0.243, -3.427e-9
-0.250, -3.452e-9
-0.257, -3.473e-9
-0.264, -3.493e-9
-0.271, -3.513e-9
-0.278, -3.533e-9
-0.285, -3.551e-9
-0.292, -3.575e-9
-0.299, -3.595e-9
-0.306, -3.616e-9
-0.313, -3.639e-9
-0.320, -3.658e-9
-0.327, -3.680e-9
-0.334, -3.699e-9
-0.341, -3.715e-9
-0.348, -3.730e-9
-0.355, -3.746e-9
-0.362, -3.759e-9
-0.369, -3.775e-9
-0.376, -3.789e-9
-0.383, -3.804e-9
-0.390, -3.821e-9
-0.397, -3.835e-9
-0.404, -3.855e-9
-0.411, -3.870e-9
-0.418, -3.885e-9
-0.425, -3.900e-9
-0.432, -3.919e-9
-0.439, -3.934e-9
-0.446, -3.954e-9
-0.453, -3.972e-9
-0.460, -3.991e-9
-0.467, -4.010e-9
-0.474, -4.026e-9
-0.481, -4.048e-9
-0.488, -4.069e-9
-0.495, -4.095e-9
-0.499, -4.108e-9