File: Supplementary Fig 4/Fig S4e Surface CV +DCMU/CV SURFACE INCUBATED 2 .txt
Mar. 7, 2025   14:34:56
Cyclic Voltammetry
File: cv surface incubated 2 .bin
Data Source:  Experiment
Instrument Model:  CHI920C
Ref. Electrode:
Header:
Note:

Init E (V) = -0.5
High E (V) = 0.5
Low E (V) = -0.5
Init P/N = P
Scan Rate (V/s) = 0.05
Segment = 2
Sample Interval (V) = 0.001
Quiet Time (sec) = 10
Sensitivity (A/V) = 1e-8

Results:

Channel 1:
Segment 1:

Segment 2:

Potential/V, Current/A

-0.500, -1.845e-9
-0.493, -1.581e-9
-0.486, -1.464e-9
-0.479, -1.365e-9
-0.472, -1.277e-9
-0.465, -1.195e-9
-0.458, -1.119e-9
-0.451, -1.045e-9
-0.444, -9.758e-10
-0.437, -9.081e-10
-0.430, -8.428e-10
-0.423, -7.804e-10
-0.416, -7.180e-10
-0.409, -6.583e-10
-0.402, -5.998e-10
-0.395, -5.427e-10
-0.388, -4.872e-10
-0.381, -4.324e-10
-0.374, -3.799e-10
-0.367, -3.286e-10
-0.360, -2.755e-10
-0.353, -2.266e-10
-0.346, -1.764e-10
-0.339, -1.286e-10
-0.332, -8.068e-11
-0.325, -3.371e-11
-0.318, 1.099e-11
-0.311, 5.624e-11
-0.304, 1.012e-10
-0.297, 1.443e-10
-0.290, 1.858e-10
-0.283, 2.278e-10
-0.276, 2.689e-10
-0.269, 3.102e-10
-0.262, 3.495e-10
-0.255, 3.876e-10
-0.248, 4.283e-10
-0.241, 4.653e-10
-0.234, 5.027e-10
-0.227, 5.394e-10
-0.220, 5.782e-10
-0.213, 6.134e-10
-0.206, 6.492e-10
-0.199, 6.837e-10
-0.192, 7.170e-10
-0.185, 7.527e-10
-0.178, 7.858e-10
-0.171, 8.200e-10
-0.164, 8.522e-10
-0.157, 8.870e-10
-0.150, 9.165e-10
-0.143, 9.525e-10
-0.136, 9.841e-10
-0.129, 1.015e-9
-0.122, 1.047e-9
-0.115, 1.078e-9
-0.108, 1.111e-9
-0.101, 1.145e-9
-0.094, 1.174e-9
-0.087, 1.207e-9
-0.080, 1.237e-9
-0.073, 1.268e-9
-0.066, 1.299e-9
-0.059, 1.331e-9
-0.052, 1.363e-9
-0.045, 1.395e-9
-0.038, 1.426e-9
-0.031, 1.458e-9
-0.024, 1.490e-9
-0.017, 1.523e-9
-0.010, 1.555e-9
-0.003, 1.587e-9
0.004, 1.619e-9
0.011, 1.654e-9
0.018, 1.686e-9
0.025, 1.722e-9
0.032, 1.756e-9
0.039, 1.789e-9
0.046, 1.827e-9
0.053, 1.862e-9
0.060, 1.899e-9
0.067, 1.934e-9
0.074, 1.972e-9
0.081, 2.011e-9
0.088, 2.050e-9
0.095, 2.091e-9
0.102, 2.137e-9
0.109, 2.178e-9
0.116, 2.218e-9
0.123, 2.262e-9
0.130, 2.309e-9
0.137, 2.358e-9
0.144, 2.407e-9
0.151, 2.458e-9
0.158, 2.510e-9
0.165, 2.562e-9
0.172, 2.614e-9
0.179, 2.666e-9
0.186, 2.719e-9
0.193, 2.770e-9
0.200, 2.823e-9
0.207, 2.870e-9
0.214, 2.920e-9
0.221, 2.968e-9
0.228, 3.017e-9
0.235, 3.064e-9
0.242, 3.111e-9
0.249, 3.158e-9
0.256, 3.202e-9
0.263, 3.248e-9
0.270, 3.292e-9
0.277, 3.337e-9
0.284, 3.380e-9
0.291, 3.422e-9
0.298, 3.464e-9
0.305, 3.506e-9
0.312, 3.550e-9
0.319, 3.591e-9
0.326, 3.631e-9
0.333, 3.671e-9
0.340, 3.713e-9
0.347, 3.753e-9
0.354, 3.793e-9
0.361, 3.836e-9
0.368, 3.878e-9
0.375, 3.919e-9
0.382, 3.961e-9
0.389, 4.008e-9
0.396, 4.050e-9
0.403, 4.094e-9
0.410, 4.132e-9
0.417, 4.182e-9
0.424, 4.225e-9
0.431, 4.271e-9
0.438, 4.313e-9
0.445, 4.358e-9
0.452, 4.404e-9
0.459, 4.449e-9
0.466, 4.494e-9
0.473, 4.543e-9
0.480, 4.596e-9
0.487, 4.647e-9
0.494, 4.701e-9
0.499, 4.518e-9
0.492, 4.013e-9
0.485, 3.709e-9
0.478, 3.458e-9
0.471, 3.244e-9
0.464, 3.056e-9
0.457, 2.883e-9
0.450, 2.724e-9
0.443, 2.578e-9
0.436, 2.440e-9
0.429, 2.308e-9
0.422, 2.184e-9
0.415, 2.064e-9
0.408, 1.953e-9
0.401, 1.840e-9
0.394, 1.733e-9
0.387, 1.629e-9
0.380, 1.528e-9
0.373, 1.429e-9
0.366, 1.333e-9
0.359, 1.239e-9
0.352, 1.149e-9
0.345, 1.061e-9
0.338, 9.746e-10
0.331, 8.911e-10
0.324, 8.081e-10
0.317, 7.270e-10
0.310, 6.500e-10
0.303, 5.717e-10
0.296, 4.988e-10
0.289, 4.264e-10
0.282, 3.567e-10
0.275, 2.914e-10
0.268, 2.279e-10
0.261, 1.665e-10
0.254, 1.081e-10
0.247, 5.242e-11
0.240, 8.325e-13
0.233, -4.899e-11
0.226, -9.670e-11
0.219, -1.404e-10
0.212, -1.835e-10
0.205, -2.208e-10
0.198, -2.605e-10
0.191, -2.964e-10
0.184, -3.321e-10
0.177, -3.652e-10
0.170, -3.978e-10
0.163, -4.282e-10
0.156, -4.609e-10
0.149, -4.921e-10
0.142, -5.231e-10
0.135, -5.539e-10
0.128, -5.854e-10
0.121, -6.183e-10
0.114, -6.511e-10
0.107, -6.835e-10
0.100, -7.183e-10
0.093, -7.515e-10
0.086, -7.848e-10
0.079, -8.221e-10
0.072, -8.578e-10
0.065, -8.953e-10
0.058, -9.329e-10
0.051, -9.692e-10
0.044, -1.008e-9
0.037, -1.046e-9
0.030, -1.086e-9
0.023, -1.126e-9
0.016, -1.165e-9
0.009, -1.205e-9
0.002, -1.247e-9
-0.005, -1.286e-9
-0.012, -1.328e-9
-0.019, -1.368e-9
-0.026, -1.410e-9
-0.033, -1.458e-9
-0.040, -1.511e-9
-0.047, -1.570e-9
-0.054, -1.592e-9
-0.061, -1.611e-9
-0.068, -1.675e-9
-0.075, -1.686e-9
-0.082, -1.725e-9
-0.089, -1.766e-9
-0.096, -1.803e-9
-0.103, -1.844e-9
-0.110, -1.877e-9
-0.117, -1.913e-9
-0.124, -1.951e-9
-0.131, -1.988e-9
-0.138, -2.023e-9
-0.145, -2.061e-9
-0.152, -2.098e-9
-0.159, -2.134e-9
-0.166, -2.169e-9
-0.173, -2.205e-9
-0.180, -2.240e-9
-0.187, -2.277e-9
-0.194, -2.312e-9
-0.201, -2.350e-9
-0.208, -2.385e-9
-0.215, -2.420e-9
-0.222, -2.456e-9
-0.229, -2.492e-9
-0.236, -2.527e-9
-0.243, -2.561e-9
-0.250, -2.596e-9
-0.257, -2.629e-9
-0.264, -2.665e-9
-0.271, -2.702e-9
-0.278, -2.737e-9
-0.285, -2.768e-9
-0.292, -2.810e-9
-0.299, -2.841e-9
-0.306, -2.883e-9
-0.313, -2.918e-9
-0.320, -2.953e-9
-0.327, -2.992e-9
-0.334, -3.029e-9
-0.341, -3.067e-9
-0.348, -3.103e-9
-0.355, -3.142e-9
-0.362, -3.175e-9
-0.369, -3.214e-9
-0.376, -3.250e-9
-0.383, -3.290e-9
-0.390, -3.330e-9
-0.397, -3.366e-9
-0.404, -3.407e-9
-0.411, -3.447e-9
-0.418, -3.485e-9
-0.425, -3.526e-9
-0.432, -3.567e-9
-0.439, -3.609e-9
-0.446, -3.653e-9
-0.453, -3.695e-9
-0.460, -3.740e-9
-0.467, -3.785e-9
-0.474, -3.831e-9
-0.481, -3.878e-9
-0.488, -3.925e-9
-0.495, -3.975e-9
-0.499, -4.005e-9