File: Supplementary Fig 4/Fig S4e Surface CV +DCMU/CV SURFACE INCUBATED 1.txt
Mar. 7, 2025   14:31:41
Cyclic Voltammetry
File: cv surface incubated 1
Instrument Model:  CHI920C
Ref. Electrode:
Header:
Note:

Init E (V) = -0.5
High E (V) = 0.5
Low E (V) = -0.5
Init P/N = P
Scan Rate (V/s) = 0.05
Segment = 2
Sample Interval (V) = 0.001
Quiet Time (sec) = 10
Sensitivity (A/V) = 1e-8

Results:

Channel 1:
Segment 1:

Segment 2:

Potential/V, Current/A

-0.500, -2.306e-9
-0.493, -2.041e-9
-0.486, -1.918e-9
-0.479, -1.814e-9
-0.472, -1.722e-9
-0.465, -1.635e-9
-0.458, -1.553e-9
-0.451, -1.478e-9
-0.444, -1.403e-9
-0.437, -1.330e-9
-0.430, -1.261e-9
-0.423, -1.192e-9
-0.416, -1.127e-9
-0.409, -1.063e-9
-0.402, -9.996e-10
-0.395, -9.394e-10
-0.388, -8.779e-10
-0.381, -8.163e-10
-0.374, -7.677e-10
-0.367, -7.107e-10
-0.360, -6.495e-10
-0.353, -5.999e-10
-0.346, -5.456e-10
-0.339, -4.772e-10
-0.332, -4.397e-10
-0.325, -3.921e-10
-0.318, -3.456e-10
-0.311, -2.976e-10
-0.304, -2.440e-10
-0.297, -1.956e-10
-0.290, -1.500e-10
-0.283, -1.018e-10
-0.276, -5.639e-11
-0.269, -1.627e-11
-0.262, 2.980e-11
-0.255, 7.024e-11
-0.248, 1.143e-10
-0.241, 1.561e-10
-0.234, 2.061e-10
-0.227, 2.354e-10
-0.220, 2.781e-10
-0.213, 3.163e-10
-0.206, 3.573e-10
-0.199, 3.958e-10
-0.192, 4.347e-10
-0.185, 4.716e-10
-0.178, 5.057e-10
-0.171, 5.439e-10
-0.164, 5.811e-10
-0.157, 6.123e-10
-0.150, 6.576e-10
-0.143, 6.889e-10
-0.136, 7.234e-10
-0.129, 7.576e-10
-0.122, 7.960e-10
-0.115, 8.313e-10
-0.108, 8.657e-10
-0.101, 9.029e-10
-0.094, 9.352e-10
-0.087, 9.668e-10
-0.080, 1.005e-9
-0.073, 1.039e-9
-0.066, 1.075e-9
-0.059, 1.109e-9
-0.052, 1.145e-9
-0.045, 1.178e-9
-0.038, 1.211e-9
-0.031, 1.248e-9
-0.024, 1.285e-9
-0.017, 1.322e-9
-0.010, 1.358e-9
-0.003, 1.393e-9
0.004, 1.430e-9
0.011, 1.467e-9
0.018, 1.505e-9
0.025, 1.544e-9
0.032, 1.584e-9
0.039, 1.623e-9
0.046, 1.662e-9
0.053, 1.702e-9
0.060, 1.744e-9
0.067, 1.783e-9
0.074, 1.826e-9
0.081, 1.868e-9
0.088, 1.909e-9
0.095, 1.956e-9
0.102, 2.002e-9
0.109, 2.047e-9
0.116, 2.094e-9
0.123, 2.144e-9
0.130, 2.198e-9
0.137, 2.248e-9
0.144, 2.301e-9
0.151, 2.356e-9
0.158, 2.409e-9
0.165, 2.465e-9
0.172, 2.521e-9
0.179, 2.579e-9
0.186, 2.645e-9
0.193, 2.681e-9
0.200, 2.747e-9
0.207, 2.803e-9
0.214, 2.853e-9
0.221, 2.919e-9
0.228, 2.976e-9
0.235, 2.990e-9
0.242, 3.051e-9
0.249, 3.123e-9
0.256, 3.173e-9
0.263, 3.224e-9
0.270, 3.275e-9
0.277, 3.327e-9
0.284, 3.376e-9
0.291, 3.425e-9
0.298, 3.472e-9
0.305, 3.520e-9
0.312, 3.572e-9
0.319, 3.619e-9
0.326, 3.667e-9
0.333, 3.713e-9
0.340, 3.759e-9
0.347, 3.805e-9
0.354, 3.849e-9
0.361, 3.897e-9
0.368, 3.942e-9
0.375, 3.987e-9
0.382, 4.037e-9
0.389, 4.087e-9
0.396, 4.134e-9
0.403, 4.184e-9
0.410, 4.228e-9
0.417, 4.286e-9
0.424, 4.337e-9
0.431, 4.387e-9
0.438, 4.435e-9
0.445, 4.485e-9
0.452, 4.535e-9
0.459, 4.588e-9
0.466, 4.639e-9
0.473, 4.693e-9
0.480, 4.747e-9
0.487, 4.807e-9
0.494, 4.863e-9
0.499, 4.691e-9
0.492, 4.159e-9
0.485, 3.826e-9
0.478, 3.557e-9
0.471, 3.329e-9
0.464, 3.122e-9
0.457, 2.940e-9
0.450, 2.769e-9
0.443, 2.613e-9
0.436, 2.467e-9
0.429, 2.326e-9
0.422, 2.196e-9
0.415, 2.072e-9
0.408, 1.953e-9
0.401, 1.834e-9
0.394, 1.722e-9
0.387, 1.613e-9
0.380, 1.508e-9
0.373, 1.405e-9
0.366, 1.307e-9
0.359, 1.210e-9
0.352, 1.116e-9
0.345, 1.024e-9
0.338, 9.324e-10
0.331, 8.463e-10
0.324, 7.600e-10
0.317, 6.774e-10
0.310, 5.974e-10
0.303, 5.167e-10
0.296, 4.406e-10
0.289, 3.674e-10
0.282, 2.951e-10
0.275, 2.259e-10
0.268, 1.617e-10
0.261, 9.800e-11
0.254, 3.869e-11
0.247, -1.923e-11
0.240, -7.463e-11
0.233, -1.262e-10
0.226, -1.741e-10
0.219, -2.204e-10
0.212, -2.643e-10
0.205, -3.044e-10
0.198, -3.448e-10
0.191, -3.819e-10
0.184, -4.189e-10
0.177, -4.539e-10
0.170, -4.870e-10
0.163, -5.199e-10
0.156, -5.526e-10
0.149, -5.846e-10
0.142, -6.170e-10
0.135, -6.499e-10
0.128, -6.840e-10
0.121, -7.183e-10
0.114, -7.535e-10
0.107, -7.901e-10
0.100, -8.274e-10
0.093, -8.639e-10
0.086, -9.022e-10
0.079, -9.412e-10
0.072, -9.813e-10
0.065, -1.022e-9
0.058, -1.063e-9
0.051, -1.106e-9
0.044, -1.149e-9
0.037, -1.192e-9
0.030, -1.235e-9
0.023, -1.281e-9
0.016, -1.325e-9
0.009, -1.369e-9
0.002, -1.416e-9
-0.005, -1.459e-9
-0.012, -1.504e-9
-0.019, -1.549e-9
-0.026, -1.594e-9
-0.033, -1.640e-9
-0.040, -1.689e-9
-0.047, -1.744e-9
-0.054, -1.786e-9
-0.061, -1.825e-9
-0.068, -1.846e-9
-0.075, -1.852e-9
-0.082, -1.895e-9
-0.089, -1.969e-9
-0.096, -2.022e-9
-0.103, -2.046e-9
-0.110, -2.088e-9
-0.117, -2.127e-9
-0.124, -2.167e-9
-0.131, -2.202e-9
-0.138, -2.241e-9
-0.145, -2.274e-9
-0.152, -2.310e-9
-0.159, -2.347e-9
-0.166, -2.373e-9
-0.173, -2.427e-9
-0.180, -2.462e-9
-0.187, -2.504e-9
-0.194, -2.526e-9
-0.201, -2.586e-9
-0.208, -2.609e-9
-0.215, -2.644e-9
-0.222, -2.688e-9
-0.229, -2.728e-9
-0.236, -2.755e-9
-0.243, -2.785e-9
-0.250, -2.832e-9
-0.257, -2.858e-9
-0.264, -2.904e-9
-0.271, -2.940e-9
-0.278, -2.970e-9
-0.285, -3.008e-9
-0.292, -3.044e-9
-0.299, -3.086e-9
-0.306, -3.113e-9
-0.313, -3.148e-9
-0.320, -3.191e-9
-0.327, -3.231e-9
-0.334, -3.263e-9
-0.341, -3.300e-9
-0.348, -3.332e-9
-0.355, -3.367e-9
-0.362, -3.412e-9
-0.369, -3.448e-9
-0.376, -3.479e-9
-0.383, -3.522e-9
-0.390, -3.561e-9
-0.397, -3.598e-9
-0.404, -3.635e-9
-0.411, -3.674e-9
-0.418, -3.716e-9
-0.425, -3.759e-9
-0.432, -3.794e-9
-0.439, -3.839e-9
-0.446, -3.880e-9
-0.453, -3.921e-9
-0.460, -3.967e-9
-0.467, -4.011e-9
-0.474, -4.052e-9
-0.481, -4.104e-9
-0.488, -4.150e-9
-0.495, -4.198e-9
-0.499, -4.225e-9