File: Supplementary Fig 4/Fig S4e Surface CV +DCMU/CV SURFACE INCUBATED 8.txt
Mar. 7, 2025   14:41:43
Cyclic Voltammetry
File: cv surface incubated 8.bin
Data Source:  Experiment
Instrument Model:  CHI920C
Ref. Electrode:
Header:
Note:

Init E (V) = -0.5
High E (V) = 0.5
Low E (V) = -0.5
Init P/N = P
Scan Rate (V/s) = 0.05
Segment = 2
Sample Interval (V) = 0.001
Quiet Time (sec) = 10
Sensitivity (A/V) = 1e-8

Results:

Channel 1:
Segment 1:

Segment 2:

Potential/V, Current/A

-0.500, -2.112e-9
-0.493, -1.847e-9
-0.486, -1.731e-9
-0.479, -1.630e-9
-0.472, -1.545e-9
-0.465, -1.463e-9
-0.458, -1.385e-9
-0.451, -1.311e-9
-0.444, -1.242e-9
-0.437, -1.173e-9
-0.430, -1.107e-9
-0.423, -1.043e-9
-0.416, -9.818e-10
-0.409, -9.204e-10
-0.402, -8.606e-10
-0.395, -8.031e-10
-0.388, -7.460e-10
-0.381, -6.920e-10
-0.374, -6.387e-10
-0.367, -5.843e-10
-0.360, -5.312e-10
-0.353, -4.804e-10
-0.346, -4.307e-10
-0.339, -3.824e-10
-0.332, -3.333e-10
-0.325, -2.848e-10
-0.318, -2.395e-10
-0.311, -1.950e-10
-0.304, -1.480e-10
-0.297, -1.046e-10
-0.290, -6.092e-11
-0.283, -2.237e-11
-0.276, 2.247e-11
-0.269, 6.448e-11
-0.262, 1.038e-10
-0.255, 1.429e-10
-0.248, 1.851e-10
-0.241, 2.215e-10
-0.234, 2.618e-10
-0.227, 2.971e-10
-0.220, 3.364e-10
-0.213, 3.734e-10
-0.206, 4.104e-10
-0.199, 4.481e-10
-0.192, 4.825e-10
-0.185, 5.185e-10
-0.178, 5.566e-10
-0.171, 5.913e-10
-0.164, 6.277e-10
-0.157, 6.632e-10
-0.150, 6.982e-10
-0.143, 7.328e-10
-0.136, 7.674e-10
-0.129, 8.066e-10
-0.122, 8.405e-10
-0.115, 8.751e-10
-0.108, 9.099e-10
-0.101, 9.489e-10
-0.094, 9.853e-10
-0.087, 1.019e-9
-0.080, 1.053e-9
-0.073, 1.091e-9
-0.066, 1.127e-9
-0.059, 1.162e-9
-0.052, 1.198e-9
-0.045, 1.233e-9
-0.038, 1.271e-9
-0.031, 1.307e-9
-0.024, 1.341e-9
-0.017, 1.379e-9
-0.010, 1.415e-9
-0.003, 1.449e-9
0.004, 1.484e-9
0.011, 1.520e-9
0.018, 1.555e-9
0.025, 1.591e-9
0.032, 1.626e-9
0.039, 1.661e-9
0.046, 1.698e-9
0.053, 1.733e-9
0.060, 1.768e-9
0.067, 1.805e-9
0.074, 1.841e-9
0.081, 1.880e-9
0.088, 1.917e-9
0.095, 1.957e-9
0.102, 2.006e-9
0.109, 2.062e-9
0.116, 2.088e-9
0.123, 2.118e-9
0.130, 2.163e-9
0.137, 2.209e-9
0.144, 2.255e-9
0.151, 2.304e-9
0.158, 2.354e-9
0.165, 2.403e-9
0.172, 2.456e-9
0.179, 2.506e-9
0.186, 2.557e-9
0.193, 2.611e-9
0.200, 2.662e-9
0.207, 2.707e-9
0.214, 2.759e-9
0.221, 2.807e-9
0.228, 2.854e-9
0.235, 2.901e-9
0.242, 2.947e-9
0.249, 2.992e-9
0.256, 3.035e-9
0.263, 3.080e-9
0.270, 3.120e-9
0.277, 3.159e-9
0.284, 3.201e-9
0.291, 3.240e-9
0.298, 3.277e-9
0.305, 3.315e-9
0.312, 3.354e-9
0.319, 3.390e-9
0.326, 3.424e-9
0.333, 3.461e-9
0.340, 3.497e-9
0.347, 3.531e-9
0.354, 3.565e-9
0.361, 3.601e-9
0.368, 3.636e-9
0.375, 3.669e-9
0.382, 3.705e-9
0.389, 3.744e-9
0.396, 3.785e-9
0.403, 3.824e-9
0.410, 3.857e-9
0.417, 3.903e-9
0.424, 3.942e-9
0.431, 3.981e-9
0.438, 4.021e-9
0.445, 4.062e-9
0.452, 4.103e-9
0.459, 4.145e-9
0.466, 4.187e-9
0.473, 4.231e-9
0.480, 4.277e-9
0.487, 4.324e-9
0.494, 4.375e-9
0.499, 4.183e-9
0.492, 3.714e-9
0.485, 3.441e-9
0.478, 3.218e-9
0.471, 3.027e-9
0.464, 2.859e-9
0.457, 2.704e-9
0.450, 2.560e-9
0.443, 2.428e-9
0.436, 2.302e-9
0.429, 2.182e-9
0.422, 2.069e-9
0.415, 1.958e-9
0.408, 1.857e-9
0.401, 1.754e-9
0.394, 1.654e-9
0.387, 1.555e-9
0.380, 1.461e-9
0.373, 1.372e-9
0.366, 1.282e-9
0.359, 1.194e-9
0.352, 1.109e-9
0.345, 1.027e-9
0.338, 9.450e-10
0.331, 8.666e-10
0.324, 7.888e-10
0.317, 7.107e-10
0.310, 6.359e-10
0.303, 5.669e-10
0.296, 4.967e-10
0.289, 4.304e-10
0.282, 3.674e-10
0.275, 3.059e-10
0.268, 2.480e-10
0.261, 1.898e-10
0.254, 1.357e-10
0.247, 8.458e-11
0.240, 3.457e-11
0.233, -1.088e-11
0.226, -5.537e-11
0.219, -9.571e-11
0.212, -1.332e-10
0.205, -1.648e-10
0.198, -2.004e-10
0.191, -2.369e-10
0.184, -2.680e-10
0.177, -3.003e-10
0.170, -3.302e-10
0.163, -3.585e-10
0.156, -3.888e-10
0.149, -4.209e-10
0.142, -4.497e-10
0.135, -4.789e-10
0.128, -5.087e-10
0.121, -5.419e-10
0.114, -5.724e-10
0.107, -6.055e-10
0.100, -6.401e-10
0.093, -6.738e-10
0.086, -7.079e-10
0.079, -7.447e-10
0.072, -7.816e-10
0.065, -8.196e-10
0.058, -8.596e-10
0.051, -8.990e-10
0.044, -9.398e-10
0.037, -9.823e-10
0.030, -1.024e-9
0.023, -1.067e-9
0.016, -1.112e-9
0.009, -1.156e-9
0.002, -1.202e-9
-0.005, -1.247e-9
-0.012, -1.295e-9
-0.019, -1.345e-9
-0.026, -1.395e-9
-0.033, -1.448e-9
-0.040, -1.510e-9
-0.047, -1.552e-9
-0.054, -1.582e-9
-0.061, -1.641e-9
-0.068, -1.679e-9
-0.075, -1.714e-9
-0.082, -1.758e-9
-0.089, -1.806e-9
-0.096, -1.848e-9
-0.103, -1.893e-9
-0.110, -1.935e-9
-0.117, -1.977e-9
-0.124, -2.044e-9
-0.131, -2.058e-9
-0.138, -2.100e-9
-0.145, -2.142e-9
-0.152, -2.179e-9
-0.159, -2.219e-9
-0.166, -2.259e-9
-0.173, -2.297e-9
-0.180, -2.337e-9
-0.187, -2.373e-9
-0.194, -2.410e-9
-0.201, -2.451e-9
-0.208, -2.484e-9
-0.215, -2.522e-9
-0.222, -2.559e-9
-0.229, -2.597e-9
-0.236, -2.633e-9
-0.243, -2.668e-9
-0.250, -2.704e-9
-0.257, -2.742e-9
-0.264, -2.774e-9
-0.271, -2.811e-9
-0.278, -2.847e-9
-0.285, -2.883e-9
-0.292, -2.921e-9
-0.299, -2.955e-9
-0.306, -2.989e-9
-0.313, -3.028e-9
-0.320, -3.062e-9
-0.327, -3.097e-9
-0.334, -3.135e-9
-0.341, -3.172e-9
-0.348, -3.207e-9
-0.355, -3.246e-9
-0.362, -3.281e-9
-0.369, -3.319e-9
-0.376, -3.356e-9
-0.383, -3.393e-9
-0.390, -3.432e-9
-0.397, -3.469e-9
-0.404, -3.508e-9
-0.411, -3.548e-9
-0.418, -3.586e-9
-0.425, -3.629e-9
-0.432, -3.668e-9
-0.439, -3.709e-9
-0.446, -3.750e-9
-0.453, -3.794e-9
-0.460, -3.837e-9
-0.467, -3.882e-9
-0.474, -3.925e-9
-0.481, -3.973e-9
-0.488, -4.015e-9
-0.495, -4.061e-9
-0.499, -4.089e-9