File: Supplementary Fig 4/Fig S4e Surface CV +DCMU/CV SURFACE INCUBATED 4.txt
Mar. 7, 2025   14:37:04
Cyclic Voltammetry
File: cv surface incubated 4.bin
Data Source:  Experiment
Instrument Model:  CHI920C
Ref. Electrode:
Header:
Note:

Init E (V) = -0.5
High E (V) = 0.5
Low E (V) = -0.5
Init P/N = P
Scan Rate (V/s) = 0.05
Segment = 2
Sample Interval (V) = 0.001
Quiet Time (sec) = 10
Sensitivity (A/V) = 1e-8

Results:

Channel 1:
Segment 1:

Segment 2:

Potential/V, Current/A

-0.500, -1.912e-9
-0.493, -1.647e-9
-0.486, -1.532e-9
-0.479, -1.432e-9
-0.472, -1.344e-9
-0.465, -1.262e-9
-0.458, -1.184e-9
-0.451, -1.113e-9
-0.444, -1.042e-9
-0.437, -9.750e-10
-0.430, -9.104e-10
-0.423, -8.471e-10
-0.416, -7.852e-10
-0.409, -7.259e-10
-0.402, -6.669e-10
-0.395, -6.110e-10
-0.388, -5.554e-10
-0.381, -5.013e-10
-0.374, -4.476e-10
-0.367, -3.950e-10
-0.360, -3.433e-10
-0.353, -2.938e-10
-0.346, -2.457e-10
-0.339, -1.968e-10
-0.332, -1.500e-10
-0.325, -1.037e-10
-0.318, -5.954e-11
-0.311, -1.427e-11
-0.304, 3.120e-11
-0.297, 7.335e-11
-0.290, 1.164e-10
-0.283, 1.571e-10
-0.276, 1.981e-10
-0.269, 2.396e-10
-0.262, 2.778e-10
-0.255, 3.163e-10
-0.248, 3.546e-10
-0.241, 3.926e-10
-0.234, 4.303e-10
-0.227, 4.670e-10
-0.220, 5.031e-10
-0.213, 5.395e-10
-0.206, 5.751e-10
-0.199, 6.094e-10
-0.192, 6.441e-10
-0.185, 6.778e-10
-0.178, 7.140e-10
-0.171, 7.465e-10
-0.164, 7.808e-10
-0.157, 8.145e-10
-0.150, 8.464e-10
-0.143, 8.803e-10
-0.136, 9.125e-10
-0.129, 9.460e-10
-0.122, 9.811e-10
-0.115, 1.011e-9
-0.108, 1.045e-9
-0.101, 1.081e-9
-0.094, 1.113e-9
-0.087, 1.146e-9
-0.080, 1.177e-9
-0.073, 1.205e-9
-0.066, 1.236e-9
-0.059, 1.267e-9
-0.052, 1.302e-9
-0.045, 1.336e-9
-0.038, 1.370e-9
-0.031, 1.404e-9
-0.024, 1.443e-9
-0.017, 1.478e-9
-0.010, 1.506e-9
-0.003, 1.537e-9
0.004, 1.568e-9
0.011, 1.596e-9
0.018, 1.636e-9
0.025, 1.676e-9
0.032, 1.712e-9
0.039, 1.743e-9
0.046, 1.782e-9
0.053, 1.818e-9
0.060, 1.857e-9
0.067, 1.891e-9
0.074, 1.929e-9
0.081, 1.968e-9
0.088, 2.010e-9
0.095, 2.049e-9
0.102, 2.103e-9
0.109, 2.145e-9
0.116, 2.175e-9
0.123, 2.215e-9
0.130, 2.260e-9
0.137, 2.307e-9
0.144, 2.355e-9
0.151, 2.405e-9
0.158, 2.457e-9
0.165, 2.507e-9
0.172, 2.560e-9
0.179, 2.614e-9
0.186, 2.669e-9
0.193, 2.723e-9
0.200, 2.772e-9
0.207, 2.818e-9
0.214, 2.868e-9
0.221, 2.915e-9
0.228, 2.964e-9
0.235, 3.006e-9
0.242, 3.056e-9
0.249, 3.101e-9
0.256, 3.145e-9
0.263, 3.192e-9
0.270, 3.235e-9
0.277, 3.278e-9
0.284, 3.318e-9
0.291, 3.360e-9
0.298, 3.400e-9
0.305, 3.442e-9
0.312, 3.481e-9
0.319, 3.522e-9
0.326, 3.559e-9
0.333, 3.597e-9
0.340, 3.643e-9
0.347, 3.670e-9
0.354, 3.712e-9
0.361, 3.752e-9
0.368, 3.789e-9
0.375, 3.829e-9
0.382, 3.869e-9
0.389, 3.909e-9
0.396, 3.952e-9
0.403, 3.991e-9
0.410, 4.028e-9
0.417, 4.076e-9
0.424, 4.117e-9
0.431, 4.159e-9
0.438, 4.201e-9
0.445, 4.242e-9
0.452, 4.287e-9
0.459, 4.330e-9
0.466, 4.375e-9
0.473, 4.421e-9
0.480, 4.468e-9
0.487, 4.519e-9
0.494, 4.572e-9
0.499, 4.388e-9
0.492, 3.900e-9
0.485, 3.606e-9
0.478, 3.369e-9
0.471, 3.166e-9
0.464, 2.986e-9
0.457, 2.819e-9
0.450, 2.666e-9
0.443, 2.525e-9
0.436, 2.391e-9
0.429, 2.264e-9
0.422, 2.144e-9
0.415, 2.028e-9
0.408, 1.923e-9
0.401, 1.813e-9
0.394, 1.712e-9
0.387, 1.609e-9
0.380, 1.509e-9
0.373, 1.414e-9
0.366, 1.321e-9
0.359, 1.231e-9
0.352, 1.142e-9
0.345, 1.056e-9
0.338, 9.712e-10
0.331, 8.901e-10
0.324, 8.096e-10
0.317, 7.331e-10
0.310, 6.564e-10
0.303, 5.800e-10
0.296, 5.086e-10
0.289, 4.384e-10
0.282, 3.703e-10
0.275, 3.067e-10
0.268, 2.449e-10
0.261, 1.860e-10
0.254, 1.305e-10
0.247, 7.312e-11
0.240, 2.099e-11
0.233, -2.736e-11
0.226, -7.171e-11
0.219, -1.173e-10
0.212, -1.575e-10
0.205, -1.922e-10
0.198, -2.309e-10
0.191, -2.637e-10
0.184, -3.027e-10
0.177, -3.323e-10
0.170, -3.649e-10
0.163, -3.960e-10
0.156, -4.267e-10
0.149, -4.555e-10
0.142, -4.893e-10
0.135, -5.187e-10
0.128, -5.503e-10
0.121, -5.810e-10
0.114, -6.149e-10
0.107, -6.470e-10
0.100, -6.835e-10
0.093, -7.159e-10
0.086, -7.512e-10
0.079, -7.869e-10
0.072, -8.235e-10
0.065, -8.609e-10
0.058, -9.001e-10
0.051, -9.388e-10
0.044, -9.794e-10
0.037, -1.019e-9
0.030, -1.060e-9
0.023, -1.102e-9
0.016, -1.145e-9
0.009, -1.188e-9
0.002, -1.231e-9
-0.005, -1.274e-9
-0.012, -1.319e-9
-0.019, -1.365e-9
-0.026, -1.410e-9
-0.033, -1.462e-9
-0.040, -1.513e-9
-0.047, -1.562e-9
-0.054, -1.602e-9
-0.061, -1.636e-9
-0.068, -1.673e-9
-0.075, -1.706e-9
-0.082, -1.758e-9
-0.089, -1.792e-9
-0.096, -1.830e-9
-0.103, -1.873e-9
-0.110, -1.915e-9
-0.117, -1.952e-9
-0.124, -1.992e-9
-0.131, -2.029e-9
-0.138, -2.072e-9
-0.145, -2.109e-9
-0.152, -2.147e-9
-0.159, -2.190e-9
-0.166, -2.223e-9
-0.173, -2.257e-9
-0.180, -2.303e-9
-0.187, -2.332e-9
-0.194, -2.368e-9
-0.201, -2.403e-9
-0.208, -2.437e-9
-0.215, -2.474e-9
-0.222, -2.510e-9
-0.229, -2.547e-9
-0.236, -2.580e-9
-0.243, -2.610e-9
-0.250, -2.644e-9
-0.257, -2.689e-9
-0.264, -2.730e-9
-0.271, -2.771e-9
-0.278, -2.802e-9
-0.285, -2.835e-9
-0.292, -2.869e-9
-0.299, -2.906e-9
-0.306, -2.943e-9
-0.313, -2.980e-9
-0.320, -3.014e-9
-0.327, -3.052e-9
-0.334, -3.087e-9
-0.341, -3.124e-9
-0.348, -3.160e-9
-0.355, -3.195e-9
-0.362, -3.234e-9
-0.369, -3.273e-9
-0.376, -3.309e-9
-0.383, -3.348e-9
-0.390, -3.384e-9
-0.397, -3.421e-9
-0.404, -3.462e-9
-0.411, -3.500e-9
-0.418, -3.540e-9
-0.425, -3.579e-9
-0.432, -3.622e-9
-0.439, -3.668e-9
-0.446, -3.710e-9
-0.453, -3.752e-9
-0.460, -3.797e-9
-0.467, -3.842e-9
-0.474, -3.885e-9
-0.481, -3.936e-9
-0.488, -3.987e-9
-0.495, -4.038e-9
-0.499, -4.066e-9