File: Supplementary Fig 4/Fig S4e Surface CV +DCMU/CV SURFACE INCUBATED 6.txt
Mar. 7, 2025   14:39:18
Cyclic Voltammetry
File: cv surface incubated 6.bin
Data Source:  Experiment
Instrument Model:  CHI920C
Ref. Electrode:
Header:
Note:

Init E (V) = -0.5
High E (V) = 0.5
Low E (V) = -0.5
Init P/N = P
Scan Rate (V/s) = 0.05
Segment = 2
Sample Interval (V) = 0.001
Quiet Time (sec) = 10
Sensitivity (A/V) = 1e-8

Results:

Channel 1:
Segment 1:

Segment 2:

Potential/V, Current/A

-0.500, -1.977e-9
-0.493, -1.712e-9
-0.486, -1.595e-9
-0.479, -1.496e-9
-0.472, -1.407e-9
-0.465, -1.327e-9
-0.458, -1.250e-9
-0.451, -1.177e-9
-0.444, -1.108e-9
-0.437, -1.040e-9
-0.430, -9.737e-10
-0.423, -9.096e-10
-0.416, -8.473e-10
-0.409, -7.892e-10
-0.402, -7.311e-10
-0.395, -6.763e-10
-0.388, -6.190e-10
-0.381, -5.651e-10
-0.374, -5.118e-10
-0.367, -4.586e-10
-0.360, -4.074e-10
-0.353, -3.582e-10
-0.346, -3.099e-10
-0.339, -2.612e-10
-0.332, -2.137e-10
-0.325, -1.656e-10
-0.318, -1.207e-10
-0.311, -7.628e-11
-0.304, -3.183e-11
-0.297, 1.123e-11
-0.290, 5.395e-11
-0.283, 9.637e-11
-0.276, 1.380e-10
-0.269, 1.790e-10
-0.262, 2.177e-10
-0.255, 2.570e-10
-0.248, 2.971e-10
-0.241, 3.341e-10
-0.234, 3.718e-10
-0.227, 4.095e-10
-0.220, 4.450e-10
-0.213, 4.822e-10
-0.206, 5.185e-10
-0.199, 5.533e-10
-0.192, 5.905e-10
-0.185, 6.251e-10
-0.178, 6.595e-10
-0.171, 6.940e-10
-0.164, 7.279e-10
-0.157, 7.623e-10
-0.150, 7.954e-10
-0.143, 8.296e-10
-0.136, 8.633e-10
-0.129, 8.971e-10
-0.122, 9.318e-10
-0.115, 9.643e-10
-0.108, 9.993e-10
-0.101, 1.034e-9
-0.094, 1.066e-9
-0.087, 1.101e-9
-0.080, 1.134e-9
-0.073, 1.166e-9
-0.066, 1.202e-9
-0.059, 1.235e-9
-0.052, 1.269e-9
-0.045, 1.303e-9
-0.038, 1.336e-9
-0.031, 1.372e-9
-0.024, 1.406e-9
-0.017, 1.440e-9
-0.010, 1.476e-9
-0.003, 1.509e-9
0.004, 1.543e-9
0.011, 1.578e-9
0.018, 1.614e-9
0.025, 1.649e-9
0.032, 1.684e-9
0.039, 1.720e-9
0.046, 1.755e-9
0.053, 1.790e-9
0.060, 1.826e-9
0.067, 1.862e-9
0.074, 1.900e-9
0.081, 1.939e-9
0.088, 1.977e-9
0.095, 2.019e-9
0.102, 2.066e-9
0.109, 2.113e-9
0.116, 2.144e-9
0.123, 2.181e-9
0.130, 2.225e-9
0.137, 2.272e-9
0.144, 2.318e-9
0.151, 2.367e-9
0.158, 2.417e-9
0.165, 2.468e-9
0.172, 2.520e-9
0.179, 2.575e-9
0.186, 2.627e-9
0.193, 2.678e-9
0.200, 2.728e-9
0.207, 2.773e-9
0.214, 2.821e-9
0.221, 2.869e-9
0.228, 2.916e-9
0.235, 2.961e-9
0.242, 3.006e-9
0.249, 3.053e-9
0.256, 3.097e-9
0.263, 3.140e-9
0.270, 3.182e-9
0.277, 3.223e-9
0.284, 3.265e-9
0.291, 3.302e-9
0.298, 3.343e-9
0.305, 3.379e-9
0.312, 3.419e-9
0.319, 3.458e-9
0.326, 3.491e-9
0.333, 3.527e-9
0.340, 3.566e-9
0.347, 3.600e-9
0.354, 3.639e-9
0.361, 3.676e-9
0.368, 3.712e-9
0.375, 3.750e-9
0.382, 3.788e-9
0.389, 3.826e-9
0.396, 3.867e-9
0.403, 3.910e-9
0.410, 3.945e-9
0.417, 3.994e-9
0.424, 4.035e-9
0.431, 4.079e-9
0.438, 4.118e-9
0.445, 4.159e-9
0.452, 4.198e-9
0.459, 4.238e-9
0.466, 4.281e-9
0.473, 4.324e-9
0.480, 4.369e-9
0.487, 4.417e-9
0.494, 4.471e-9
0.499, 4.283e-9
0.492, 3.807e-9
0.485, 3.524e-9
0.478, 3.295e-9
0.471, 3.098e-9
0.464, 2.925e-9
0.457, 2.765e-9
0.450, 2.619e-9
0.443, 2.484e-9
0.436, 2.351e-9
0.429, 2.234e-9
0.422, 2.114e-9
0.415, 2.003e-9
0.408, 1.894e-9
0.401, 1.788e-9
0.394, 1.687e-9
0.387, 1.589e-9
0.380, 1.493e-9
0.373, 1.400e-9
0.366, 1.310e-9
0.359, 1.220e-9
0.352, 1.136e-9
0.345, 1.051e-9
0.338, 9.716e-10
0.331, 8.858e-10
0.324, 8.002e-10
0.317, 7.325e-10
0.310, 6.570e-10
0.303, 5.822e-10
0.296, 5.115e-10
0.289, 4.444e-10
0.282, 3.785e-10
0.275, 3.155e-10
0.268, 2.543e-10
0.261, 1.962e-10
0.254, 1.384e-10
0.247, 8.742e-11
0.240, 3.813e-11
0.233, -8.701e-12
0.226, -5.241e-11
0.219, -9.581e-11
0.212, -1.365e-10
0.205, -1.701e-10
0.198, -2.069e-10
0.191, -2.422e-10
0.184, -2.748e-10
0.177, -3.074e-10
0.170, -3.391e-10
0.163, -3.678e-10
0.156, -3.991e-10
0.149, -4.287e-10
0.142, -4.597e-10
0.135, -4.895e-10
0.128, -5.236e-10
0.121, -5.491e-10
0.114, -5.851e-10
0.107, -6.210e-10
0.100, -6.536e-10
0.093, -6.873e-10
0.086, -7.186e-10
0.079, -7.569e-10
0.072, -7.940e-10
0.065, -8.322e-10
0.058, -8.697e-10
0.051, -9.079e-10
0.044, -9.495e-10
0.037, -9.926e-10
0.030, -1.032e-9
0.023, -1.074e-9
0.016, -1.116e-9
0.009, -1.161e-9
0.002, -1.204e-9
-0.005, -1.247e-9
-0.012, -1.292e-9
-0.019, -1.342e-9
-0.026, -1.388e-9
-0.033, -1.438e-9
-0.040, -1.488e-9
-0.047, -1.546e-9
-0.054, -1.571e-9
-0.061, -1.613e-9
-0.068, -1.650e-9
-0.075, -1.696e-9
-0.082, -1.737e-9
-0.089, -1.779e-9
-0.096, -1.822e-9
-0.103, -1.871e-9
-0.110, -1.907e-9
-0.117, -1.945e-9
-0.124, -1.986e-9
-0.131, -2.024e-9
-0.138, -2.062e-9
-0.145, -2.100e-9
-0.152, -2.139e-9
-0.159, -2.178e-9
-0.166, -2.215e-9
-0.173, -2.254e-9
-0.180, -2.289e-9
-0.187, -2.326e-9
-0.194, -2.363e-9
-0.201, -2.399e-9
-0.208, -2.437e-9
-0.215, -2.473e-9
-0.222, -2.511e-9
-0.229, -2.548e-9
-0.236, -2.583e-9
-0.243, -2.618e-9
-0.250, -2.652e-9
-0.257, -2.689e-9
-0.264, -2.724e-9
-0.271, -2.760e-9
-0.278, -2.797e-9
-0.285, -2.831e-9
-0.292, -2.868e-9
-0.299, -2.903e-9
-0.306, -2.936e-9
-0.313, -2.973e-9
-0.320, -3.008e-9
-0.327, -3.047e-9
-0.334, -3.083e-9
-0.341, -3.118e-9
-0.348, -3.153e-9
-0.355, -3.195e-9
-0.362, -3.235e-9
-0.369, -3.269e-9
-0.376, -3.305e-9
-0.383, -3.343e-9
-0.390, -3.382e-9
-0.397, -3.421e-9
-0.404, -3.461e-9
-0.411, -3.501e-9
-0.418, -3.539e-9
-0.425, -3.579e-9
-0.432, -3.620e-9
-0.439, -3.661e-9
-0.446, -3.703e-9
-0.453, -3.745e-9
-0.460, -3.792e-9
-0.467, -3.837e-9
-0.474, -3.882e-9
-0.481, -3.929e-9
-0.488, -3.977e-9
-0.495, -4.024e-9
-0.499, -4.053e-9