File: Supplementary Fig 4/Fig S4e Surface CV +DCMU/CV SURFACE INCUBATED 10.txt
Mar. 7, 2025   14:43:55
Cyclic Voltammetry
File: cv surface incubated 10.bin
Data Source:  Experiment
Instrument Model:  CHI920C
Ref. Electrode:
Header:
Note:

Init E (V) = -0.5
High E (V) = 0.5
Low E (V) = -0.5
Init P/N = P
Scan Rate (V/s) = 0.05
Segment = 2
Sample Interval (V) = 0.001
Quiet Time (sec) = 10
Sensitivity (A/V) = 1e-8

Results:

Channel 1:
Segment 1:

Segment 2:

Potential/V, Current/A

-0.500, -2.134e-9
-0.493, -1.870e-9
-0.486, -1.754e-9
-0.479, -1.656e-9
-0.472, -1.568e-9
-0.465, -1.488e-9
-0.458, -1.410e-9
-0.451, -1.336e-9
-0.444, -1.266e-9
-0.437, -1.199e-9
-0.430, -1.131e-9
-0.423, -1.072e-9
-0.416, -1.001e-9
-0.409, -9.502e-10
-0.402, -8.914e-10
-0.395, -8.368e-10
-0.388, -7.844e-10
-0.381, -7.277e-10
-0.374, -6.721e-10
-0.367, -6.119e-10
-0.360, -5.554e-10
-0.353, -5.029e-10
-0.346, -4.532e-10
-0.339, -4.065e-10
-0.332, -3.596e-10
-0.325, -3.132e-10
-0.318, -2.681e-10
-0.311, -2.262e-10
-0.304, -1.809e-10
-0.297, -1.361e-10
-0.290, -9.292e-11
-0.283, -4.683e-11
-0.276, -1.421e-11
-0.269, 2.628e-11
-0.262, 7.648e-11
-0.255, 1.161e-10
-0.248, 1.542e-10
-0.241, 1.930e-10
-0.234, 2.339e-10
-0.227, 2.749e-10
-0.220, 3.114e-10
-0.213, 3.523e-10
-0.206, 3.899e-10
-0.199, 4.215e-10
-0.192, 4.590e-10
-0.185, 4.996e-10
-0.178, 5.346e-10
-0.171, 5.829e-10
-0.164, 6.197e-10
-0.157, 6.211e-10
-0.150, 6.285e-10
-0.143, 6.918e-10
-0.136, 7.271e-10
-0.129, 7.879e-10
-0.122, 8.348e-10
-0.115, 8.737e-10
-0.108, 9.107e-10
-0.101, 9.466e-10
-0.094, 9.743e-10
-0.087, 1.006e-9
-0.080, 1.043e-9
-0.073, 1.072e-9
-0.066, 1.104e-9
-0.059, 1.151e-9
-0.052, 1.196e-9
-0.045, 1.235e-9
-0.038, 1.269e-9
-0.031, 1.306e-9
-0.024, 1.344e-9
-0.017, 1.380e-9
-0.010, 1.416e-9
-0.003, 1.449e-9
0.004, 1.486e-9
0.011, 1.530e-9
0.018, 1.559e-9
0.025, 1.593e-9
0.032, 1.634e-9
0.039, 1.662e-9
0.046, 1.703e-9
0.053, 1.737e-9
0.060, 1.775e-9
0.067, 1.812e-9
0.074, 1.849e-9
0.081, 1.891e-9
0.088, 1.916e-9
0.095, 1.966e-9
0.102, 2.013e-9
0.109, 2.052e-9
0.116, 2.083e-9
0.123, 2.111e-9
0.130, 2.162e-9
0.137, 2.207e-9
0.144, 2.258e-9
0.151, 2.305e-9
0.158, 2.355e-9
0.165, 2.413e-9
0.172, 2.438e-9
0.179, 2.489e-9
0.186, 2.547e-9
0.193, 2.590e-9
0.200, 2.649e-9
0.207, 2.703e-9
0.214, 2.752e-9
0.221, 2.811e-9
0.228, 2.851e-9
0.235, 2.886e-9
0.242, 2.923e-9
0.249, 2.914e-9
0.256, 3.012e-9
0.263, 3.054e-9
0.270, 3.088e-9
0.277, 3.137e-9
0.284, 3.172e-9
0.291, 3.185e-9
0.298, 3.234e-9
0.305, 3.285e-9
0.312, 3.329e-9
0.319, 3.343e-9
0.326, 3.379e-9
0.333, 3.411e-9
0.340, 3.459e-9
0.347, 3.495e-9
0.354, 3.515e-9
0.361, 3.561e-9
0.368, 3.585e-9
0.375, 3.621e-9
0.382, 3.657e-9
0.389, 3.693e-9
0.396, 3.729e-9
0.403, 3.766e-9
0.410, 3.797e-9
0.417, 3.843e-9
0.424, 3.886e-9
0.431, 3.930e-9
0.438, 3.956e-9
0.445, 4.002e-9
0.452, 4.039e-9
0.459, 4.083e-9
0.466, 4.127e-9
0.473, 4.173e-9
0.480, 4.221e-9
0.487, 4.272e-9
0.494, 4.319e-9
0.499, 4.126e-9
0.492, 3.673e-9
0.485, 3.401e-9
0.478, 3.185e-9
0.471, 3.000e-9
0.464, 2.838e-9
0.457, 2.688e-9
0.450, 2.541e-9
0.443, 2.415e-9
0.436, 2.285e-9
0.429, 2.160e-9
0.422, 2.050e-9
0.415, 1.942e-9
0.408, 1.843e-9
0.401, 1.751e-9
0.394, 1.655e-9
0.387, 1.562e-9
0.380, 1.471e-9
0.373, 1.376e-9
0.366, 1.302e-9
0.359, 1.211e-9
0.352, 1.136e-9
0.345, 1.069e-9
0.338, 1.008e-9
0.331, 9.006e-10
0.324, 8.246e-10
0.317, 7.451e-10
0.310, 6.383e-10
0.303, 6.000e-10
0.296, 4.960e-10
0.289, 4.595e-10
0.282, 3.801e-10
0.275, 3.207e-10
0.268, 2.669e-10
0.261, 2.102e-10
0.254, 1.667e-10
0.247, 1.183e-10
0.240, 7.119e-11
0.233, 2.208e-11
0.226, -9.618e-12
0.219, -5.128e-11
0.212, -9.933e-11
0.205, -1.298e-10
0.198, -1.756e-10
0.191, -2.047e-10
0.184, -2.337e-10
0.177, -2.612e-10
0.170, -2.900e-10
0.163, -3.205e-10
0.156, -3.524e-10
0.149, -3.825e-10
0.142, -4.141e-10
0.135, -4.430e-10
0.128, -4.704e-10
0.121, -5.022e-10
0.114, -5.381e-10
0.107, -5.646e-10
0.100, -6.071e-10
0.093, -6.353e-10
0.086, -6.760e-10
0.079, -7.065e-10
0.072, -7.550e-10
0.065, -7.804e-10
0.058, -8.269e-10
0.051, -8.642e-10
0.044, -9.093e-10
0.037, -9.500e-10
0.030, -9.941e-10
0.023, -1.036e-9
0.016, -1.083e-9
0.009, -1.130e-9
0.002, -1.179e-9
-0.005, -1.226e-9
-0.012, -1.278e-9
-0.019, -1.326e-9
-0.026, -1.377e-9
-0.033, -1.430e-9
-0.040, -1.487e-9
-0.047, -1.547e-9
-0.054, -1.593e-9
-0.061, -1.616e-9
-0.068, -1.660e-9
-0.075, -1.707e-9
-0.082, -1.750e-9
-0.089, -1.798e-9
-0.096, -1.850e-9
-0.103, -1.901e-9
-0.110, -1.937e-9
-0.117, -1.982e-9
-0.124, -2.026e-9
-0.131, -2.065e-9
-0.138, -2.106e-9
-0.145, -2.145e-9
-0.152, -2.183e-9
-0.159, -2.225e-9
-0.166, -2.288e-9
-0.173, -2.341e-9
-0.180, -2.370e-9
-0.187, -2.406e-9
-0.194, -2.424e-9
-0.201, -2.470e-9
-0.208, -2.498e-9
-0.215, -2.543e-9
-0.222, -2.586e-9
-0.229, -2.616e-9
-0.236, -2.663e-9
-0.243, -2.701e-9
-0.250, -2.727e-9
-0.257, -2.776e-9
-0.264, -2.802e-9
-0.271, -2.844e-9
-0.278, -2.875e-9
-0.285, -2.911e-9
-0.292, -2.946e-9
-0.299, -2.982e-9
-0.306, -3.018e-9
-0.313, -3.055e-9
-0.320, -3.090e-9
-0.327, -3.127e-9
-0.334, -3.163e-9
-0.341, -3.197e-9
-0.348, -3.234e-9
-0.355, -3.271e-9
-0.362, -3.309e-9
-0.369, -3.347e-9
-0.376, -3.389e-9
-0.383, -3.427e-9
-0.390, -3.465e-9
-0.397, -3.501e-9
-0.404, -3.541e-9
-0.411, -3.583e-9
-0.418, -3.624e-9
-0.425, -3.662e-9
-0.432, -3.701e-9
-0.439, -3.741e-9
-0.446, -3.776e-9
-0.453, -3.826e-9
-0.460, -3.868e-9
-0.467, -3.917e-9
-0.474, -3.960e-9
-0.481, -4.012e-9
-0.488, -4.060e-9
-0.495, -4.107e-9
-0.499, -4.137e-9