File: Supplementary Fig 4/Fig S4e Surface CV +DCMU/CV SURFACE INCUBATED 11.txt
Mar. 7, 2025   14:45:09
Cyclic Voltammetry
File: cv surface incubated 11.bin
Data Source:  Experiment
Instrument Model:  CHI920C
Ref. Electrode:
Header:
Note:

Init E (V) = -0.5
High E (V) = 0.5
Low E (V) = -0.5
Init P/N = P
Scan Rate (V/s) = 0.05
Segment = 2
Sample Interval (V) = 0.001
Quiet Time (sec) = 10
Sensitivity (A/V) = 1e-8

Results:

Channel 1:
Segment 1:

Segment 2:

Potential/V, Current/A

-0.500, -2.161e-9
-0.493, -1.898e-9
-0.486, -1.784e-9
-0.479, -1.687e-9
-0.472, -1.598e-9
-0.465, -1.516e-9
-0.458, -1.439e-9
-0.451, -1.366e-9
-0.444, -1.296e-9
-0.437, -1.228e-9
-0.430, -1.162e-9
-0.423, -1.098e-9
-0.416, -1.037e-9
-0.409, -9.750e-10
-0.402, -9.149e-10
-0.395, -8.615e-10
-0.388, -8.025e-10
-0.381, -7.468e-10
-0.374, -6.918e-10
-0.367, -6.393e-10
-0.360, -5.867e-10
-0.353, -5.356e-10
-0.346, -4.850e-10
-0.339, -4.355e-10
-0.332, -3.876e-10
-0.325, -3.393e-10
-0.318, -2.933e-10
-0.311, -2.475e-10
-0.304, -2.012e-10
-0.297, -1.575e-10
-0.290, -1.128e-10
-0.283, -7.092e-11
-0.276, -2.874e-11
-0.269, 1.429e-11
-0.262, 5.434e-11
-0.255, 9.590e-11
-0.248, 1.359e-10
-0.241, 1.752e-10
-0.234, 2.148e-10
-0.227, 2.529e-10
-0.220, 2.926e-10
-0.213, 3.294e-10
-0.206, 3.682e-10
-0.199, 4.051e-10
-0.192, 4.415e-10
-0.185, 4.809e-10
-0.178, 5.165e-10
-0.171, 5.535e-10
-0.164, 5.905e-10
-0.157, 6.269e-10
-0.150, 6.626e-10
-0.143, 6.989e-10
-0.136, 7.364e-10
-0.129, 7.732e-10
-0.122, 8.100e-10
-0.115, 8.464e-10
-0.108, 8.848e-10
-0.101, 9.241e-10
-0.094, 9.588e-10
-0.087, 9.951e-10
-0.080, 1.032e-9
-0.073, 1.069e-9
-0.066, 1.106e-9
-0.059, 1.143e-9
-0.052, 1.181e-9
-0.045, 1.218e-9
-0.038, 1.254e-9
-0.031, 1.293e-9
-0.024, 1.327e-9
-0.017, 1.365e-9
-0.010, 1.403e-9
-0.003, 1.436e-9
0.004, 1.468e-9
0.011, 1.505e-9
0.018, 1.542e-9
0.025, 1.577e-9
0.032, 1.611e-9
0.039, 1.647e-9
0.046, 1.683e-9
0.053, 1.718e-9
0.060, 1.754e-9
0.067, 1.789e-9
0.074, 1.826e-9
0.081, 1.861e-9
0.088, 1.897e-9
0.095, 1.938e-9
0.102, 1.985e-9
0.109, 2.030e-9
0.116, 2.054e-9
0.123, 2.093e-9
0.130, 2.135e-9
0.137, 2.179e-9
0.144, 2.223e-9
0.151, 2.269e-9
0.158, 2.316e-9
0.165, 2.365e-9
0.172, 2.415e-9
0.179, 2.466e-9
0.186, 2.516e-9
0.193, 2.565e-9
0.200, 2.612e-9
0.207, 2.659e-9
0.214, 2.709e-9
0.221, 2.755e-9
0.228, 2.803e-9
0.235, 2.849e-9
0.242, 2.893e-9
0.249, 2.937e-9
0.256, 2.980e-9
0.263, 3.021e-9
0.270, 3.062e-9
0.277, 3.103e-9
0.284, 3.143e-9
0.291, 3.180e-9
0.298, 3.214e-9
0.305, 3.252e-9
0.312, 3.289e-9
0.319, 3.323e-9
0.326, 3.357e-9
0.333, 3.391e-9
0.340, 3.426e-9
0.347, 3.457e-9
0.354, 3.490e-9
0.361, 3.522e-9
0.368, 3.556e-9
0.375, 3.588e-9
0.382, 3.623e-9
0.389, 3.658e-9
0.396, 3.693e-9
0.403, 3.730e-9
0.410, 3.762e-9
0.417, 3.809e-9
0.424, 3.847e-9
0.431, 3.887e-9
0.438, 3.927e-9
0.445, 3.967e-9
0.452, 4.007e-9
0.459, 4.049e-9
0.466, 4.090e-9
0.473, 4.135e-9
0.480, 4.182e-9
0.487, 4.230e-9
0.494, 4.282e-9
0.499, 4.087e-9
0.492, 3.631e-9
0.485, 3.367e-9
0.478, 3.153e-9
0.471, 2.970e-9
0.464, 2.807e-9
0.457, 2.657e-9
0.450, 2.519e-9
0.443, 2.390e-9
0.436, 2.269e-9
0.429, 2.153e-9
0.422, 2.043e-9
0.415, 1.935e-9
0.408, 1.837e-9
0.401, 1.737e-9
0.394, 1.640e-9
0.387, 1.545e-9
0.380, 1.455e-9
0.373, 1.365e-9
0.366, 1.278e-9
0.359, 1.193e-9
0.352, 1.111e-9
0.345, 1.032e-9
0.338, 9.511e-10
0.331, 8.745e-10
0.324, 7.961e-10
0.317, 7.237e-10
0.310, 6.519e-10
0.303, 5.829e-10
0.296, 5.141e-10
0.289, 4.486e-10
0.282, 3.855e-10
0.275, 3.265e-10
0.268, 2.709e-10
0.261, 2.136e-10
0.254, 1.613e-10
0.247, 1.108e-10
0.240, 6.511e-11
0.233, 2.067e-11
0.226, -2.204e-11
0.219, -6.058e-11
0.212, -9.780e-11
0.205, -1.304e-10
0.198, -1.659e-10
0.191, -1.969e-10
0.184, -2.296e-10
0.177, -2.596e-10
0.170, -2.907e-10
0.163, -3.198e-10
0.156, -3.491e-10
0.149, -3.787e-10
0.142, -4.080e-10
0.135, -4.392e-10
0.128, -4.679e-10
0.121, -5.007e-10
0.114, -5.318e-10
0.107, -5.632e-10
0.100, -5.995e-10
0.093, -6.315e-10
0.086, -6.657e-10
0.079, -7.023e-10
0.072, -7.399e-10
0.065, -7.774e-10
0.058, -8.158e-10
0.051, -8.548e-10
0.044, -8.959e-10
0.037, -9.372e-10
0.030, -9.804e-10
0.023, -1.024e-9
0.016, -1.067e-9
0.009, -1.112e-9
0.002, -1.158e-9
-0.005, -1.204e-9
-0.012, -1.253e-9
-0.019, -1.302e-9
-0.026, -1.353e-9
-0.033, -1.407e-9
-0.040, -1.472e-9
-0.047, -1.510e-9
-0.054, -1.554e-9
-0.061, -1.597e-9
-0.068, -1.640e-9
-0.075, -1.687e-9
-0.082, -1.732e-9
-0.089, -1.780e-9
-0.096, -1.825e-9
-0.103, -1.878e-9
-0.110, -1.916e-9
-0.117, -1.962e-9
-0.124, -2.005e-9
-0.131, -2.049e-9
-0.138, -2.090e-9
-0.145, -2.133e-9
-0.152, -2.177e-9
-0.159, -2.215e-9
-0.166, -2.257e-9
-0.173, -2.298e-9
-0.180, -2.336e-9
-0.187, -2.377e-9
-0.194, -2.417e-9
-0.201, -2.455e-9
-0.208, -2.489e-9
-0.215, -2.529e-9
-0.222, -2.566e-9
-0.229, -2.605e-9
-0.236, -2.642e-9
-0.243, -2.679e-9
-0.250, -2.715e-9
-0.257, -2.750e-9
-0.264, -2.787e-9
-0.271, -2.822e-9
-0.278, -2.858e-9
-0.285, -2.894e-9
-0.292, -2.931e-9
-0.299, -2.966e-9
-0.306, -3.003e-9
-0.313, -3.036e-9
-0.320, -3.074e-9
-0.327, -3.115e-9
-0.334, -3.152e-9
-0.341, -3.192e-9
-0.348, -3.223e-9
-0.355, -3.258e-9
-0.362, -3.297e-9
-0.369, -3.333e-9
-0.376, -3.370e-9
-0.383, -3.408e-9
-0.390, -3.447e-9
-0.397, -3.484e-9
-0.404, -3.525e-9
-0.411, -3.564e-9
-0.418, -3.603e-9
-0.425, -3.642e-9
-0.432, -3.682e-9
-0.439, -3.722e-9
-0.446, -3.767e-9
-0.453, -3.811e-9
-0.460, -3.855e-9
-0.467, -3.900e-9
-0.474, -3.945e-9
-0.481, -3.993e-9
-0.488, -4.039e-9
-0.495, -4.087e-9
-0.499, -4.116e-9