File: Supplementary Fig 4/Fig S4e Surface CV +DCMU/CV SURFACE INCUBATED 3 .txt
Mar. 7, 2025   14:36:01
Cyclic Voltammetry
File: cv surface incubated 3 .bin
Data Source:  Experiment
Instrument Model:  CHI920C
Ref. Electrode:
Header:
Note:

Init E (V) = -0.5
High E (V) = 0.5
Low E (V) = -0.5
Init P/N = P
Scan Rate (V/s) = 0.05
Segment = 2
Sample Interval (V) = 0.001
Quiet Time (sec) = 10
Sensitivity (A/V) = 1e-8

Results:

Channel 1:
Segment 1:

Segment 2:

Potential/V, Current/A

-0.500, -1.869e-9
-0.493, -1.604e-9
-0.486, -1.487e-9
-0.479, -1.387e-9
-0.472, -1.299e-9
-0.465, -1.217e-9
-0.458, -1.139e-9
-0.451, -1.066e-9
-0.444, -9.958e-10
-0.437, -9.285e-10
-0.430, -8.632e-10
-0.423, -7.995e-10
-0.416, -7.390e-10
-0.409, -6.767e-10
-0.402, -6.196e-10
-0.395, -5.613e-10
-0.388, -5.065e-10
-0.381, -4.526e-10
-0.374, -3.999e-10
-0.367, -3.473e-10
-0.360, -2.954e-10
-0.353, -2.464e-10
-0.346, -1.962e-10
-0.339, -1.478e-10
-0.332, -1.011e-10
-0.325, -5.482e-11
-0.318, -9.637e-12
-0.311, 3.499e-11
-0.304, 8.030e-11
-0.297, 1.222e-10
-0.290, 1.654e-10
-0.283, 2.068e-10
-0.276, 2.477e-10
-0.269, 2.878e-10
-0.262, 3.267e-10
-0.255, 3.672e-10
-0.248, 4.050e-10
-0.241, 4.427e-10
-0.234, 4.797e-10
-0.227, 5.172e-10
-0.220, 5.534e-10
-0.213, 5.894e-10
-0.206, 6.244e-10
-0.199, 6.590e-10
-0.192, 6.946e-10
-0.185, 7.308e-10
-0.178, 7.667e-10
-0.171, 7.953e-10
-0.164, 8.275e-10
-0.157, 8.628e-10
-0.150, 8.942e-10
-0.143, 9.247e-10
-0.136, 9.564e-10
-0.129, 9.905e-10
-0.122, 1.021e-9
-0.115, 1.052e-9
-0.108, 1.085e-9
-0.101, 1.118e-9
-0.094, 1.149e-9
-0.087, 1.180e-9
-0.080, 1.216e-9
-0.073, 1.252e-9
-0.066, 1.266e-9
-0.059, 1.299e-9
-0.052, 1.334e-9
-0.045, 1.371e-9
-0.038, 1.399e-9
-0.031, 1.432e-9
-0.024, 1.465e-9
-0.017, 1.497e-9
-0.010, 1.529e-9
-0.003, 1.560e-9
0.004, 1.593e-9
0.011, 1.627e-9
0.018, 1.661e-9
0.025, 1.695e-9
0.032, 1.729e-9
0.039, 1.763e-9
0.046, 1.798e-9
0.053, 1.833e-9
0.060, 1.870e-9
0.067, 1.905e-9
0.074, 1.942e-9
0.081, 1.981e-9
0.088, 2.020e-9
0.095, 2.061e-9
0.102, 2.110e-9
0.109, 2.146e-9
0.116, 2.187e-9
0.123, 2.228e-9
0.130, 2.274e-9
0.137, 2.322e-9
0.144, 2.372e-9
0.151, 2.422e-9
0.158, 2.474e-9
0.165, 2.526e-9
0.172, 2.577e-9
0.179, 2.631e-9
0.186, 2.684e-9
0.193, 2.735e-9
0.200, 2.788e-9
0.207, 2.836e-9
0.214, 2.888e-9
0.221, 2.936e-9
0.228, 2.986e-9
0.235, 3.033e-9
0.242, 3.078e-9
0.249, 3.123e-9
0.256, 3.170e-9
0.263, 3.215e-9
0.270, 3.260e-9
0.277, 3.304e-9
0.284, 3.346e-9
0.291, 3.389e-9
0.298, 3.430e-9
0.305, 3.469e-9
0.312, 3.514e-9
0.319, 3.554e-9
0.326, 3.592e-9
0.333, 3.631e-9
0.340, 3.671e-9
0.347, 3.712e-9
0.354, 3.749e-9
0.361, 3.787e-9
0.368, 3.831e-9
0.375, 3.862e-9
0.382, 3.908e-9
0.389, 3.953e-9
0.396, 3.994e-9
0.403, 4.041e-9
0.410, 4.075e-9
0.417, 4.126e-9
0.424, 4.168e-9
0.431, 4.211e-9
0.438, 4.255e-9
0.445, 4.296e-9
0.452, 4.340e-9
0.459, 4.386e-9
0.466, 4.432e-9
0.473, 4.477e-9
0.480, 4.526e-9
0.487, 4.578e-9
0.494, 4.633e-9
0.499, 4.445e-9
0.492, 3.949e-9
0.485, 3.650e-9
0.478, 3.406e-9
0.471, 3.199e-9
0.464, 3.014e-9
0.457, 2.848e-9
0.450, 2.693e-9
0.443, 2.549e-9
0.436, 2.413e-9
0.429, 2.284e-9
0.422, 2.162e-9
0.415, 2.044e-9
0.408, 1.933e-9
0.401, 1.822e-9
0.394, 1.717e-9
0.387, 1.615e-9
0.380, 1.517e-9
0.373, 1.419e-9
0.366, 1.324e-9
0.359, 1.230e-9
0.352, 1.144e-9
0.345, 1.056e-9
0.338, 9.706e-10
0.331, 8.891e-10
0.324, 8.070e-10
0.317, 7.285e-10
0.310, 6.517e-10
0.303, 5.743e-10
0.296, 5.019e-10
0.289, 4.308e-10
0.282, 3.633e-10
0.275, 2.995e-10
0.268, 2.339e-10
0.261, 1.730e-10
0.254, 1.164e-10
0.247, 6.058e-11
0.240, 1.004e-11
0.233, -3.926e-11
0.226, -8.620e-11
0.219, -1.295e-10
0.212, -1.708e-10
0.205, -2.069e-10
0.198, -2.452e-10
0.191, -2.810e-10
0.184, -3.158e-10
0.177, -3.489e-10
0.170, -3.811e-10
0.163, -4.126e-10
0.156, -4.432e-10
0.149, -4.735e-10
0.142, -5.048e-10
0.135, -5.358e-10
0.128, -5.664e-10
0.121, -5.987e-10
0.114, -6.305e-10
0.107, -6.635e-10
0.100, -6.995e-10
0.093, -7.312e-10
0.086, -7.664e-10
0.079, -8.013e-10
0.072, -8.372e-10
0.065, -8.739e-10
0.058, -9.122e-10
0.051, -9.494e-10
0.044, -9.891e-10
0.037, -1.029e-9
0.030, -1.068e-9
0.023, -1.109e-9
0.016, -1.149e-9
0.009, -1.190e-9
0.002, -1.231e-9
-0.005, -1.272e-9
-0.012, -1.315e-9
-0.019, -1.359e-9
-0.026, -1.405e-9
-0.033, -1.455e-9
-0.040, -1.513e-9
-0.047, -1.557e-9
-0.054, -1.578e-9
-0.061, -1.619e-9
-0.068, -1.646e-9
-0.075, -1.690e-9
-0.082, -1.723e-9
-0.089, -1.763e-9
-0.096, -1.803e-9
-0.103, -1.848e-9
-0.110, -1.884e-9
-0.117, -1.922e-9
-0.124, -1.959e-9
-0.131, -1.996e-9
-0.138, -2.033e-9
-0.145, -2.070e-9
-0.152, -2.108e-9
-0.159, -2.145e-9
-0.166, -2.182e-9
-0.173, -2.219e-9
-0.180, -2.255e-9
-0.187, -2.292e-9
-0.194, -2.327e-9
-0.201, -2.363e-9
-0.208, -2.398e-9
-0.215, -2.434e-9
-0.222, -2.470e-9
-0.229, -2.506e-9
-0.236, -2.542e-9
-0.243, -2.577e-9
-0.250, -2.612e-9
-0.257, -2.646e-9
-0.264, -2.683e-9
-0.271, -2.719e-9
-0.278, -2.755e-9
-0.285, -2.791e-9
-0.292, -2.827e-9
-0.299, -2.861e-9
-0.306, -2.897e-9
-0.313, -2.934e-9
-0.320, -2.968e-9
-0.327, -3.005e-9
-0.334, -3.041e-9
-0.341, -3.077e-9
-0.348, -3.113e-9
-0.355, -3.149e-9
-0.362, -3.187e-9
-0.369, -3.226e-9
-0.376, -3.263e-9
-0.383, -3.302e-9
-0.390, -3.340e-9
-0.397, -3.378e-9
-0.404, -3.419e-9
-0.411, -3.458e-9
-0.418, -3.500e-9
-0.425, -3.538e-9
-0.432, -3.580e-9
-0.439, -3.620e-9
-0.446, -3.664e-9
-0.453, -3.709e-9
-0.460, -3.754e-9
-0.467, -3.798e-9
-0.474, -3.843e-9
-0.481, -3.889e-9
-0.488, -3.935e-9
-0.495, -3.982e-9
-0.499, -4.019e-9