File: Supplementary Fig 4/Fig S4e Surface CV +DCMU/CV SURFACE INCUBATED 7.txt
Mar. 7, 2025   14:39:29
Cyclic Voltammetry
File: cv surface incubated 7.bin
Instrument Model:  CHI920C
Ref. Electrode:
Header:
Note:

Init E (V) = -0.5
High E (V) = 0.5
Low E (V) = -0.5
Init P/N = P
Scan Rate (V/s) = 0.05
Segment = 2
Sample Interval (V) = 0.001
Quiet Time (sec) = 10
Sensitivity (A/V) = 1e-8

Results:

Channel 1:
Segment 1:

Segment 2:

Potential/V, Current/A

-0.500, -2.003e-9
-0.493, -1.743e-9
-0.486, -1.627e-9
-0.479, -1.529e-9
-0.472, -1.440e-9
-0.465, -1.360e-9
-0.458, -1.285e-9
-0.451, -1.212e-9
-0.444, -1.144e-9
-0.437, -1.074e-9
-0.430, -1.010e-9
-0.423, -9.473e-10
-0.416, -8.852e-10
-0.409, -8.245e-10
-0.402, -7.673e-10
-0.395, -7.098e-10
-0.388, -6.531e-10
-0.381, -5.988e-10
-0.374, -5.463e-10
-0.367, -4.929e-10
-0.360, -4.422e-10
-0.353, -3.923e-10
-0.346, -3.429e-10
-0.339, -2.957e-10
-0.332, -2.483e-10
-0.325, -2.018e-10
-0.318, -1.549e-10
-0.311, -1.107e-10
-0.304, -6.451e-11
-0.297, -2.103e-11
-0.290, 2.067e-11
-0.283, 6.237e-11
-0.276, 1.042e-10
-0.269, 1.457e-10
-0.262, 1.858e-10
-0.255, 2.243e-10
-0.248, 2.655e-10
-0.241, 3.031e-10
-0.234, 3.415e-10
-0.227, 3.777e-10
-0.220, 4.152e-10
-0.213, 4.530e-10
-0.206, 4.886e-10
-0.199, 5.249e-10
-0.192, 5.607e-10
-0.185, 5.961e-10
-0.178, 6.325e-10
-0.171, 6.663e-10
-0.164, 7.017e-10
-0.157, 7.364e-10
-0.150, 7.688e-10
-0.143, 8.041e-10
-0.136, 8.377e-10
-0.129, 8.724e-10
-0.122, 9.078e-10
-0.115, 9.408e-10
-0.108, 9.760e-10
-0.101, 1.013e-9
-0.094, 1.045e-9
-0.087, 1.079e-9
-0.080, 1.114e-9
-0.073, 1.148e-9
-0.066, 1.183e-9
-0.059, 1.219e-9
-0.052, 1.253e-9
-0.045, 1.288e-9
-0.038, 1.321e-9
-0.031, 1.357e-9
-0.024, 1.391e-9
-0.017, 1.428e-9
-0.010, 1.463e-9
-0.003, 1.499e-9
0.004, 1.533e-9
0.011, 1.568e-9
0.018, 1.603e-9
0.025, 1.640e-9
0.032, 1.675e-9
0.039, 1.710e-9
0.046, 1.747e-9
0.053, 1.782e-9
0.060, 1.819e-9
0.067, 1.855e-9
0.074, 1.893e-9
0.081, 1.931e-9
0.088, 1.970e-9
0.095, 2.011e-9
0.102, 2.063e-9
0.109, 2.116e-9
0.116, 2.144e-9
0.123, 2.174e-9
0.130, 2.216e-9
0.137, 2.263e-9
0.144, 2.311e-9
0.151, 2.358e-9
0.158, 2.407e-9
0.165, 2.459e-9
0.172, 2.509e-9
0.179, 2.559e-9
0.186, 2.609e-9
0.193, 2.658e-9
0.200, 2.708e-9
0.207, 2.756e-9
0.214, 2.805e-9
0.221, 2.852e-9
0.228, 2.899e-9
0.235, 2.945e-9
0.242, 2.989e-9
0.249, 3.033e-9
0.256, 3.078e-9
0.263, 3.119e-9
0.270, 3.162e-9
0.277, 3.202e-9
0.284, 3.242e-9
0.291, 3.280e-9
0.298, 3.318e-9
0.305, 3.357e-9
0.312, 3.397e-9
0.319, 3.434e-9
0.326, 3.471e-9
0.333, 3.506e-9
0.340, 3.542e-9
0.347, 3.578e-9
0.354, 3.615e-9
0.361, 3.650e-9
0.368, 3.686e-9
0.375, 3.723e-9
0.382, 3.761e-9
0.389, 3.796e-9
0.396, 3.836e-9
0.403, 3.873e-9
0.410, 3.908e-9
0.417, 3.956e-9
0.424, 3.995e-9
0.431, 4.036e-9
0.438, 4.074e-9
0.445, 4.117e-9
0.452, 4.157e-9
0.459, 4.202e-9
0.466, 4.243e-9
0.473, 4.288e-9
0.480, 4.332e-9
0.487, 4.379e-9
0.494, 4.432e-9
0.499, 4.246e-9
0.492, 3.774e-9
0.485, 3.497e-9
0.478, 3.271e-9
0.471, 3.078e-9
0.464, 2.905e-9
0.457, 2.750e-9
0.450, 2.604e-9
0.443, 2.468e-9
0.436, 2.341e-9
0.429, 2.221e-9
0.422, 2.105e-9
0.415, 1.994e-9
0.408, 1.891e-9
0.401, 1.785e-9
0.394, 1.684e-9
0.387, 1.587e-9
0.380, 1.493e-9
0.373, 1.399e-9
0.366, 1.310e-9
0.359, 1.222e-9
0.352, 1.138e-9
0.345, 1.053e-9
0.338, 9.709e-10
0.331, 8.915e-10
0.324, 8.124e-10
0.317, 7.371e-10
0.310, 6.630e-10
0.303, 5.880e-10
0.296, 5.184e-10
0.289, 4.535e-10
0.282, 3.886e-10
0.275, 3.250e-10
0.268, 2.650e-10
0.261, 2.082e-10
0.254, 1.536e-10
0.247, 1.012e-10
0.240, 5.207e-11
0.233, 4.956e-12
0.226, -3.952e-11
0.219, -7.993e-11
0.212, -1.186e-10
0.205, -1.556e-10
0.198, -1.901e-10
0.191, -2.282e-10
0.184, -2.523e-10
0.177, -2.924e-10
0.170, -3.236e-10
0.163, -3.540e-10
0.156, -3.854e-10
0.149, -4.165e-10
0.142, -4.494e-10
0.135, -4.764e-10
0.128, -5.068e-10
0.121, -5.382e-10
0.114, -5.711e-10
0.107, -6.029e-10
0.100, -6.384e-10
0.093, -6.715e-10
0.086, -7.054e-10
0.079, -7.417e-10
0.072, -7.798e-10
0.065, -8.164e-10
0.058, -8.557e-10
0.051, -8.944e-10
0.044, -9.378e-10
0.037, -9.804e-10
0.030, -1.023e-9
0.023, -1.068e-9
0.016, -1.109e-9
0.009, -1.153e-9
0.002, -1.200e-9
-0.005, -1.242e-9
-0.012, -1.294e-9
-0.019, -1.339e-9
-0.026, -1.391e-9
-0.033, -1.440e-9
-0.040, -1.505e-9
-0.047, -1.553e-9
-0.054, -1.579e-9
-0.061, -1.611e-9
-0.068, -1.657e-9
-0.075, -1.714e-9
-0.082, -1.743e-9
-0.089, -1.789e-9
-0.096, -1.829e-9
-0.103, -1.884e-9
-0.110, -1.921e-9
-0.117, -1.961e-9
-0.124, -2.000e-9
-0.131, -2.051e-9
-0.138, -2.080e-9
-0.145, -2.120e-9
-0.152, -2.158e-9
-0.159, -2.198e-9
-0.166, -2.237e-9
-0.173, -2.274e-9
-0.180, -2.312e-9
-0.187, -2.349e-9
-0.194, -2.386e-9
-0.201, -2.423e-9
-0.208, -2.459e-9
-0.215, -2.497e-9
-0.222, -2.535e-9
-0.229, -2.570e-9
-0.236, -2.607e-9
-0.243, -2.643e-9
-0.250, -2.680e-9
-0.257, -2.715e-9
-0.264, -2.753e-9
-0.271, -2.785e-9
-0.278, -2.823e-9
-0.285, -2.856e-9
-0.292, -2.892e-9
-0.299, -2.927e-9
-0.306, -2.963e-9
-0.313, -2.999e-9
-0.320, -3.033e-9
-0.327, -3.071e-9
-0.334, -3.108e-9
-0.341, -3.145e-9
-0.348, -3.180e-9
-0.355, -3.217e-9
-0.362, -3.253e-9
-0.369, -3.290e-9
-0.376, -3.329e-9
-0.383, -3.367e-9
-0.390, -3.406e-9
-0.397, -3.443e-9
-0.404, -3.485e-9
-0.411, -3.523e-9
-0.418, -3.563e-9
-0.425, -3.605e-9
-0.432, -3.646e-9
-0.439, -3.686e-9
-0.446, -3.728e-9
-0.453, -3.771e-9
-0.460, -3.814e-9
-0.467, -3.858e-9
-0.474, -3.903e-9
-0.481, -3.950e-9
-0.488, -4.000e-9
-0.495, -4.051e-9
-0.499, -4.078e-9