File: Supplementary Fig 4/Fig S4e Surface CV +DCMU/CV SURFACE INCUBATED 9.txt
Mar. 7, 2025   14:42:49
Cyclic Voltammetry
File: cv surface incubated 9.bin
Data Source:  Experiment
Instrument Model:  CHI920C
Ref. Electrode:
Header:
Note:

Init E (V) = -0.5
High E (V) = 0.5
Low E (V) = -0.5
Init P/N = P
Scan Rate (V/s) = 0.05
Segment = 2
Sample Interval (V) = 0.001
Quiet Time (sec) = 10
Sensitivity (A/V) = 1e-8

Results:

Channel 1:
Segment 1:

Segment 2:

Potential/V, Current/A

-0.500, -2.087e-9
-0.493, -1.824e-9
-0.486, -1.709e-9
-0.479, -1.611e-9
-0.472, -1.524e-9
-0.465, -1.443e-9
-0.458, -1.368e-9
-0.451, -1.294e-9
-0.444, -1.224e-9
-0.437, -1.156e-9
-0.430, -1.093e-9
-0.423, -1.029e-9
-0.416, -9.669e-10
-0.409, -9.064e-10
-0.402, -8.476e-10
-0.395, -7.913e-10
-0.388, -7.361e-10
-0.381, -6.819e-10
-0.374, -6.287e-10
-0.367, -5.772e-10
-0.360, -5.253e-10
-0.353, -4.715e-10
-0.346, -4.219e-10
-0.339, -3.741e-10
-0.332, -3.286e-10
-0.325, -2.813e-10
-0.318, -2.363e-10
-0.311, -1.916e-10
-0.304, -1.452e-10
-0.297, -1.008e-10
-0.290, -5.777e-11
-0.283, -1.522e-11
-0.276, 2.551e-11
-0.269, 6.612e-11
-0.262, 1.076e-10
-0.255, 1.461e-10
-0.248, 1.861e-10
-0.241, 2.248e-10
-0.234, 2.644e-10
-0.227, 3.035e-10
-0.220, 3.403e-10
-0.213, 3.784e-10
-0.206, 4.141e-10
-0.199, 4.500e-10
-0.192, 4.933e-10
-0.185, 5.244e-10
-0.178, 5.602e-10
-0.171, 5.959e-10
-0.164, 6.317e-10
-0.157, 6.675e-10
-0.150, 7.024e-10
-0.143, 7.387e-10
-0.136, 7.737e-10
-0.129, 8.107e-10
-0.122, 8.453e-10
-0.115, 8.805e-10
-0.108, 9.177e-10
-0.101, 9.552e-10
-0.094, 9.890e-10
-0.087, 1.026e-9
-0.080, 1.060e-9
-0.073, 1.096e-9
-0.066, 1.132e-9
-0.059, 1.171e-9
-0.052, 1.200e-9
-0.045, 1.242e-9
-0.038, 1.280e-9
-0.031, 1.313e-9
-0.024, 1.351e-9
-0.017, 1.388e-9
-0.010, 1.424e-9
-0.003, 1.459e-9
0.004, 1.494e-9
0.011, 1.529e-9
0.018, 1.566e-9
0.025, 1.601e-9
0.032, 1.633e-9
0.039, 1.674e-9
0.046, 1.709e-9
0.053, 1.744e-9
0.060, 1.781e-9
0.067, 1.817e-9
0.074, 1.854e-9
0.081, 1.891e-9
0.088, 1.931e-9
0.095, 1.970e-9
0.102, 2.024e-9
0.109, 2.068e-9
0.116, 2.100e-9
0.123, 2.128e-9
0.130, 2.171e-9
0.137, 2.217e-9
0.144, 2.263e-9
0.151, 2.310e-9
0.158, 2.361e-9
0.165, 2.416e-9
0.172, 2.457e-9
0.179, 2.509e-9
0.186, 2.558e-9
0.193, 2.609e-9
0.200, 2.658e-9
0.207, 2.704e-9
0.214, 2.754e-9
0.221, 2.800e-9
0.228, 2.846e-9
0.235, 2.893e-9
0.242, 2.935e-9
0.249, 2.980e-9
0.256, 3.023e-9
0.263, 3.066e-9
0.270, 3.106e-9
0.277, 3.146e-9
0.284, 3.187e-9
0.291, 3.225e-9
0.298, 3.259e-9
0.305, 3.298e-9
0.312, 3.336e-9
0.319, 3.373e-9
0.326, 3.408e-9
0.333, 3.442e-9
0.340, 3.478e-9
0.347, 3.511e-9
0.354, 3.547e-9
0.361, 3.579e-9
0.368, 3.614e-9
0.375, 3.648e-9
0.382, 3.684e-9
0.389, 3.720e-9
0.396, 3.759e-9
0.403, 3.798e-9
0.410, 3.828e-9
0.417, 3.873e-9
0.424, 3.913e-9
0.431, 3.955e-9
0.438, 3.994e-9
0.445, 4.033e-9
0.452, 4.072e-9
0.459, 4.114e-9
0.466, 4.158e-9
0.473, 4.203e-9
0.480, 4.249e-9
0.487, 4.297e-9
0.494, 4.348e-9
0.499, 4.155e-9
0.492, 3.692e-9
0.485, 3.423e-9
0.478, 3.204e-9
0.471, 3.015e-9
0.464, 2.848e-9
0.457, 2.697e-9
0.450, 2.556e-9
0.443, 2.425e-9
0.436, 2.300e-9
0.429, 2.182e-9
0.422, 2.070e-9
0.415, 1.961e-9
0.408, 1.862e-9
0.401, 1.758e-9
0.394, 1.660e-9
0.387, 1.564e-9
0.380, 1.472e-9
0.373, 1.381e-9
0.366, 1.293e-9
0.359, 1.206e-9
0.352, 1.122e-9
0.345, 1.040e-9
0.338, 9.586e-10
0.331, 8.806e-10
0.324, 8.047e-10
0.317, 7.297e-10
0.310, 6.564e-10
0.303, 5.835e-10
0.296, 5.161e-10
0.289, 4.493e-10
0.282, 3.852e-10
0.275, 3.242e-10
0.268, 2.663e-10
0.261, 2.087e-10
0.254, 1.571e-10
0.247, 1.046e-10
0.240, 5.839e-11
0.233, 1.246e-11
0.226, -2.984e-11
0.219, -7.077e-11
0.212, -1.088e-10
0.205, -1.431e-10
0.198, -1.799e-10
0.191, -2.129e-10
0.184, -2.447e-10
0.177, -2.752e-10
0.170, -3.060e-10
0.163, -3.341e-10
0.156, -3.651e-10
0.149, -3.960e-10
0.142, -4.268e-10
0.135, -4.571e-10
0.128, -4.869e-10
0.121, -5.197e-10
0.114, -5.516e-10
0.107, -5.838e-10
0.100, -6.193e-10
0.093, -6.517e-10
0.086, -6.882e-10
0.079, -7.252e-10
0.072, -7.628e-10
0.065, -8.020e-10
0.058, -8.397e-10
0.051, -8.784e-10
0.044, -9.217e-10
0.037, -9.625e-10
0.030, -1.007e-9
0.023, -1.052e-9
0.016, -1.097e-9
0.009, -1.142e-9
0.002, -1.190e-9
-0.005, -1.235e-9
-0.012, -1.284e-9
-0.019, -1.336e-9
-0.026, -1.386e-9
-0.033, -1.447e-9
-0.040, -1.504e-9
-0.047, -1.574e-9
-0.054, -1.605e-9
-0.061, -1.636e-9
-0.068, -1.669e-9
-0.075, -1.718e-9
-0.082, -1.758e-9
-0.089, -1.804e-9
-0.096, -1.851e-9
-0.103, -1.900e-9
-0.110, -1.940e-9
-0.117, -1.983e-9
-0.124, -2.027e-9
-0.131, -2.068e-9
-0.138, -2.110e-9
-0.145, -2.151e-9
-0.152, -2.193e-9
-0.159, -2.233e-9
-0.166, -2.273e-9
-0.173, -2.314e-9
-0.180, -2.352e-9
-0.187, -2.390e-9
-0.194, -2.428e-9
-0.201, -2.466e-9
-0.208, -2.502e-9
-0.215, -2.540e-9
-0.222, -2.577e-9
-0.229, -2.615e-9
-0.236, -2.651e-9
-0.243, -2.686e-9
-0.250, -2.722e-9
-0.257, -2.759e-9
-0.264, -2.794e-9
-0.271, -2.831e-9
-0.278, -2.868e-9
-0.285, -2.903e-9
-0.292, -2.939e-9
-0.299, -2.975e-9
-0.306, -3.011e-9
-0.313, -3.048e-9
-0.320, -3.085e-9
-0.327, -3.121e-9
-0.334, -3.157e-9
-0.341, -3.193e-9
-0.348, -3.230e-9
-0.355, -3.267e-9
-0.362, -3.304e-9
-0.369, -3.342e-9
-0.376, -3.379e-9
-0.383, -3.417e-9
-0.390, -3.455e-9
-0.397, -3.492e-9
-0.404, -3.532e-9
-0.411, -3.571e-9
-0.418, -3.612e-9
-0.425, -3.652e-9
-0.432, -3.693e-9
-0.439, -3.733e-9
-0.446, -3.776e-9
-0.453, -3.820e-9
-0.460, -3.864e-9
-0.467, -3.910e-9
-0.474, -3.952e-9
-0.481, -3.997e-9
-0.488, -4.044e-9
-0.495, -4.097e-9
-0.499, -4.128e-9