File: Supplementary Fig 4/Fig S4e Surface CV +DCMU/CV SURFACE INCUBATED 5.txt
Mar. 7, 2025   14:38:13
Cyclic Voltammetry
File: cv surface incubated 5.bin
Data Source:  Experiment
Instrument Model:  CHI920C
Ref. Electrode:
Header:
Note:

Init E (V) = -0.5
High E (V) = 0.5
Low E (V) = -0.5
Init P/N = P
Scan Rate (V/s) = 0.05
Segment = 2
Sample Interval (V) = 0.001
Quiet Time (sec) = 10
Sensitivity (A/V) = 1e-8

Results:

Channel 1:
Segment 1:

Segment 2:

Potential/V, Current/A

-0.500, -1.990e-9
-0.493, -1.725e-9
-0.486, -1.609e-9
-0.479, -1.510e-9
-0.472, -1.421e-9
-0.465, -1.340e-9
-0.458, -1.262e-9
-0.451, -1.190e-9
-0.444, -1.118e-9
-0.437, -1.051e-9
-0.430, -9.865e-10
-0.423, -9.209e-10
-0.416, -8.600e-10
-0.409, -7.994e-10
-0.402, -7.399e-10
-0.395, -6.831e-10
-0.388, -6.262e-10
-0.381, -5.710e-10
-0.374, -5.175e-10
-0.367, -4.644e-10
-0.360, -4.126e-10
-0.353, -3.624e-10
-0.346, -3.128e-10
-0.339, -2.642e-10
-0.332, -2.174e-10
-0.325, -1.694e-10
-0.318, -1.241e-10
-0.311, -7.895e-11
-0.304, -3.447e-11
-0.297, 1.034e-11
-0.290, 5.283e-11
-0.283, 9.455e-11
-0.276, 1.361e-10
-0.269, 1.763e-10
-0.262, 2.157e-10
-0.255, 2.557e-10
-0.248, 2.947e-10
-0.241, 3.322e-10
-0.234, 3.721e-10
-0.227, 4.072e-10
-0.220, 4.451e-10
-0.213, 4.821e-10
-0.206, 5.184e-10
-0.199, 5.539e-10
-0.192, 5.885e-10
-0.185, 6.249e-10
-0.178, 6.573e-10
-0.171, 6.936e-10
-0.164, 7.261e-10
-0.157, 7.617e-10
-0.150, 7.949e-10
-0.143, 8.304e-10
-0.136, 8.637e-10
-0.129, 8.978e-10
-0.122, 9.324e-10
-0.115, 9.651e-10
-0.108, 9.985e-10
-0.101, 1.034e-9
-0.094, 1.067e-9
-0.087, 1.100e-9
-0.080, 1.134e-9
-0.073, 1.167e-9
-0.066, 1.201e-9
-0.059, 1.234e-9
-0.052, 1.268e-9
-0.045, 1.303e-9
-0.038, 1.335e-9
-0.031, 1.372e-9
-0.024, 1.404e-9
-0.017, 1.440e-9
-0.010, 1.474e-9
-0.003, 1.507e-9
0.004, 1.541e-9
0.011, 1.576e-9
0.018, 1.612e-9
0.025, 1.647e-9
0.032, 1.682e-9
0.039, 1.717e-9
0.046, 1.753e-9
0.053, 1.788e-9
0.060, 1.825e-9
0.067, 1.862e-9
0.074, 1.899e-9
0.081, 1.937e-9
0.088, 1.977e-9
0.095, 2.018e-9
0.102, 2.071e-9
0.109, 2.114e-9
0.116, 2.149e-9
0.123, 2.186e-9
0.130, 2.231e-9
0.137, 2.276e-9
0.144, 2.323e-9
0.151, 2.373e-9
0.158, 2.422e-9
0.165, 2.475e-9
0.172, 2.527e-9
0.179, 2.580e-9
0.186, 2.632e-9
0.193, 2.682e-9
0.200, 2.737e-9
0.207, 2.782e-9
0.214, 2.831e-9
0.221, 2.879e-9
0.228, 2.929e-9
0.235, 2.976e-9
0.242, 3.024e-9
0.249, 3.069e-9
0.256, 3.113e-9
0.263, 3.157e-9
0.270, 3.199e-9
0.277, 3.241e-9
0.284, 3.282e-9
0.291, 3.323e-9
0.298, 3.363e-9
0.305, 3.403e-9
0.312, 3.444e-9
0.319, 3.482e-9
0.326, 3.518e-9
0.333, 3.556e-9
0.340, 3.593e-9
0.347, 3.629e-9
0.354, 3.667e-9
0.361, 3.704e-9
0.368, 3.742e-9
0.375, 3.779e-9
0.382, 3.819e-9
0.389, 3.858e-9
0.396, 3.897e-9
0.403, 3.939e-9
0.410, 3.973e-9
0.417, 4.024e-9
0.424, 4.067e-9
0.431, 4.111e-9
0.438, 4.151e-9
0.445, 4.193e-9
0.452, 4.234e-9
0.459, 4.274e-9
0.466, 4.319e-9
0.473, 4.365e-9
0.480, 4.412e-9
0.487, 4.459e-9
0.494, 4.513e-9
0.499, 4.324e-9
0.492, 3.844e-9
0.485, 3.554e-9
0.478, 3.323e-9
0.471, 3.123e-9
0.464, 2.944e-9
0.457, 2.784e-9
0.450, 2.635e-9
0.443, 2.496e-9
0.436, 2.365e-9
0.429, 2.240e-9
0.422, 2.123e-9
0.415, 2.007e-9
0.408, 1.903e-9
0.401, 1.794e-9
0.394, 1.692e-9
0.387, 1.593e-9
0.380, 1.497e-9
0.373, 1.405e-9
0.366, 1.310e-9
0.359, 1.217e-9
0.352, 1.133e-9
0.345, 1.045e-9
0.338, 9.570e-10
0.331, 8.814e-10
0.324, 8.042e-10
0.317, 7.229e-10
0.310, 6.479e-10
0.303, 5.727e-10
0.296, 5.033e-10
0.289, 4.350e-10
0.282, 3.673e-10
0.275, 3.030e-10
0.268, 2.399e-10
0.261, 1.805e-10
0.254, 1.240e-10
0.247, 7.258e-11
0.240, 2.358e-11
0.233, -2.477e-11
0.226, -6.919e-11
0.219, -1.114e-10
0.212, -1.512e-10
0.205, -1.865e-10
0.198, -2.231e-10
0.191, -2.560e-10
0.184, -2.862e-10
0.177, -3.231e-10
0.170, -3.535e-10
0.163, -3.869e-10
0.156, -4.143e-10
0.149, -4.420e-10
0.142, -4.772e-10
0.135, -5.078e-10
0.128, -5.397e-10
0.121, -5.761e-10
0.114, -5.970e-10
0.107, -6.428e-10
0.100, -6.781e-10
0.093, -7.062e-10
0.086, -7.382e-10
0.079, -7.782e-10
0.072, -8.123e-10
0.065, -8.498e-10
0.058, -8.875e-10
0.051, -9.277e-10
0.044, -9.669e-10
0.037, -1.008e-9
0.030, -1.050e-9
0.023, -1.091e-9
0.016, -1.133e-9
0.009, -1.176e-9
0.002, -1.220e-9
-0.005, -1.259e-9
-0.012, -1.311e-9
-0.019, -1.354e-9
-0.026, -1.403e-9
-0.033, -1.456e-9
-0.040, -1.511e-9
-0.047, -1.561e-9
-0.054, -1.587e-9
-0.061, -1.621e-9
-0.068, -1.660e-9
-0.075, -1.704e-9
-0.082, -1.742e-9
-0.089, -1.789e-9
-0.096, -1.828e-9
-0.103, -1.874e-9
-0.110, -1.912e-9
-0.117, -1.951e-9
-0.124, -1.991e-9
-0.131, -2.029e-9
-0.138, -2.069e-9
-0.145, -2.104e-9
-0.152, -2.142e-9
-0.159, -2.181e-9
-0.166, -2.216e-9
-0.173, -2.255e-9
-0.180, -2.294e-9
-0.187, -2.329e-9
-0.194, -2.367e-9
-0.201, -2.406e-9
-0.208, -2.439e-9
-0.215, -2.477e-9
-0.222, -2.511e-9
-0.229, -2.547e-9
-0.236, -2.583e-9
-0.243, -2.618e-9
-0.250, -2.654e-9
-0.257, -2.688e-9
-0.264, -2.723e-9
-0.271, -2.759e-9
-0.278, -2.795e-9
-0.285, -2.829e-9
-0.292, -2.866e-9
-0.299, -2.907e-9
-0.306, -2.941e-9
-0.313, -2.977e-9
-0.320, -3.013e-9
-0.327, -3.049e-9
-0.334, -3.084e-9
-0.341, -3.120e-9
-0.348, -3.155e-9
-0.355, -3.194e-9
-0.362, -3.229e-9
-0.369, -3.267e-9
-0.376, -3.305e-9
-0.383, -3.343e-9
-0.390, -3.381e-9
-0.397, -3.417e-9
-0.404, -3.458e-9
-0.411, -3.496e-9
-0.418, -3.537e-9
-0.425, -3.577e-9
-0.432, -3.619e-9
-0.439, -3.658e-9
-0.446, -3.702e-9
-0.453, -3.744e-9
-0.460, -3.787e-9
-0.467, -3.836e-9
-0.474, -3.879e-9
-0.481, -3.926e-9
-0.488, -3.973e-9
-0.495, -4.021e-9
-0.499, -4.048e-9