File: Supplementary Fig 4/Fig S4d Bulk CVs post incubation/CV_dark_incubation_B.txt
Nov. 21, 2024   11:39:58
Cyclic Voltammetry
File: +12 2319-1 fto cv_cells_light_bulk 50 mv s-1.bin
Data Source:  Experiment
Instrument Model:  CHI920C
Ref. Electrode:
Header:
Note:

Init E (V) = -0.5
High E (V) = 0.5
Low E (V) = -0.5
Init P/N = P
Scan Rate (V/s) = 0.05
Segment = 2
Sample Interval (V) = 0.001
Quiet Time (sec) = 10
Sensitivity (A/V) = 1e-7

Results:

Channel 1:
Segment 1:
Ep = 0.114V
ip = 7.346e-11A
Ah = 1.032e-10C

Segment 2:

Potential/V, Current/A

-0.500, -2.147e-9
-0.493, -2.012e-9
-0.486, -1.907e-9
-0.479, -1.809e-9
-0.472, -1.716e-9
-0.465, -1.632e-9
-0.458, -1.552e-9
-0.451, -1.467e-9
-0.444, -1.391e-9
-0.437, -1.321e-9
-0.430, -1.254e-9
-0.423, -1.183e-9
-0.416, -1.120e-9
-0.409, -1.064e-9
-0.402, -1.004e-9
-0.395, -9.461e-10
-0.388, -8.947e-10
-0.381, -8.464e-10
-0.374, -8.045e-10
-0.367, -7.582e-10
-0.360, -7.125e-10
-0.353, -6.722e-10
-0.346, -6.328e-10
-0.339, -5.955e-10
-0.332, -5.612e-10
-0.325, -5.224e-10
-0.318, -4.839e-10
-0.311, -4.504e-10
-0.304, -4.178e-10
-0.297, -3.868e-10
-0.290, -3.574e-10
-0.283, -3.313e-10
-0.276, -3.035e-10
-0.269, -2.734e-10
-0.262, -2.425e-10
-0.255, -2.154e-10
-0.248, -1.884e-10
-0.241, -1.636e-10
-0.234, -1.382e-10
-0.227, -1.150e-10
-0.220, -9.189e-11
-0.213, -6.908e-11
-0.206, -4.471e-11
-0.199, -1.780e-11
-0.192, 5.985e-12
-0.185, 3.016e-11
-0.178, 4.966e-11
-0.171, 7.305e-11
-0.164, 9.391e-11
-0.157, 1.149e-10
-0.150, 1.349e-10
-0.143, 1.531e-10
-0.136, 1.708e-10
-0.129, 1.919e-10
-0.122, 2.125e-10
-0.115, 2.335e-10
-0.108, 2.542e-10
-0.101, 2.736e-10
-0.094, 2.913e-10
-0.087, 3.096e-10
-0.080, 3.273e-10
-0.073, 3.449e-10
-0.066, 3.623e-10
-0.059, 3.789e-10
-0.052, 3.945e-10
-0.045, 4.099e-10
-0.038, 4.263e-10
-0.031, 4.447e-10
-0.024, 4.652e-10
-0.017, 4.843e-10
-0.010, 5.019e-10
-0.003, 5.193e-10
0.004, 5.357e-10
0.011, 5.514e-10
0.018, 5.699e-10
0.025, 5.879e-10
0.032, 6.072e-10
0.039, 6.249e-10
0.046, 6.446e-10
0.053, 6.662e-10
0.060, 6.891e-10
0.067, 7.143e-10
0.074, 7.400e-10
0.081, 7.627e-10
0.088, 7.854e-10
0.095, 8.068e-10
0.102, 8.259e-10
0.109, 8.435e-10
0.116, 8.442e-10
0.123, 8.240e-10
0.130, 8.154e-10
0.137, 8.141e-10
0.144, 8.163e-10
0.151, 8.204e-10
0.158, 8.267e-10
0.165, 8.341e-10
0.172, 8.438e-10
0.179, 8.548e-10
0.186, 8.630e-10
0.193, 8.754e-10
0.200, 8.849e-10
0.207, 8.950e-10
0.214, 9.035e-10
0.221, 9.110e-10
0.228, 9.191e-10
0.235, 9.270e-10
0.242, 9.346e-10
0.249, 9.414e-10
0.256, 9.473e-10
0.263, 9.542e-10
0.270, 9.599e-10
0.277, 9.657e-10
0.284, 9.727e-10
0.291, 9.790e-10
0.298, 9.861e-10
0.305, 9.931e-10
0.312, 1.000e-9
0.319, 1.008e-9
0.326, 1.014e-9
0.333, 1.021e-9
0.340, 1.029e-9
0.347, 1.036e-9
0.354, 1.044e-9
0.361, 1.051e-9
0.368, 1.059e-9
0.375, 1.067e-9
0.382, 1.075e-9
0.389, 1.083e-9
0.396, 1.091e-9
0.403, 1.098e-9
0.410, 1.104e-9
0.417, 1.111e-9
0.424, 1.119e-9
0.431, 1.126e-9
0.438, 1.135e-9
0.445, 1.142e-9
0.452, 1.150e-9
0.459, 1.159e-9
0.466, 1.169e-9
0.473, 1.179e-9
0.480, 1.190e-9
0.487, 1.200e-9
0.494, 1.210e-9
0.499, 1.176e-9
0.492, 1.091e-9
0.485, 1.035e-9
0.478, 9.885e-10
0.471, 9.461e-10
0.464, 9.050e-10
0.457, 8.686e-10
0.450, 8.346e-10
0.443, 8.019e-10
0.436, 7.720e-10
0.429, 7.451e-10
0.422, 7.164e-10
0.415, 6.867e-10
0.408, 6.615e-10
0.401, 6.365e-10
0.394, 6.119e-10
0.387, 5.878e-10
0.380, 5.645e-10
0.373, 5.411e-10
0.366, 5.186e-10
0.359, 4.941e-10
0.352, 4.683e-10
0.345, 4.416e-10
0.338, 4.192e-10
0.331, 4.001e-10
0.324, 3.802e-10
0.317, 3.615e-10
0.310, 3.425e-10
0.303, 3.215e-10
0.296, 3.041e-10
0.289, 2.861e-10
0.282, 2.674e-10
0.275, 2.494e-10
0.268, 2.299e-10
0.261, 2.088e-10
0.254, 1.900e-10
0.247, 1.722e-10
0.240, 1.569e-10
0.233, 1.426e-10
0.226, 1.262e-10
0.219, 1.109e-10
0.212, 9.304e-11
0.205, 7.793e-11
0.198, 6.262e-11
0.191, 4.517e-11
0.184, 3.045e-11
0.177, 1.564e-11
0.170, -1.521e-12
0.163, -1.741e-11
0.156, -3.554e-11
0.149, -5.260e-11
0.142, -6.888e-11
0.135, -8.360e-11
0.128, -9.744e-11
0.121, -1.119e-10
0.114, -1.262e-10
0.107, -1.418e-10
0.100, -1.564e-10
0.093, -1.713e-10
0.086, -1.862e-10
0.079, -2.004e-10
0.072, -2.151e-10
0.065, -2.309e-10
0.058, -2.478e-10
0.051, -2.639e-10
0.044, -2.823e-10
0.037, -2.993e-10
0.030, -3.152e-10
0.023, -3.293e-10
0.016, -3.435e-10
0.009, -3.581e-10
0.002, -3.733e-10
-0.005, -3.904e-10
-0.012, -4.090e-10
-0.019, -4.261e-10
-0.026, -4.406e-10
-0.033, -4.559e-10
-0.040, -4.731e-10
-0.047, -4.930e-10
-0.054, -5.123e-10
-0.061, -5.324e-10
-0.068, -5.530e-10
-0.075, -5.704e-10
-0.082, -5.876e-10
-0.089, -6.041e-10
-0.096, -6.227e-10
-0.103, -6.438e-10
-0.110, -6.621e-10
-0.117, -6.826e-10
-0.124, -7.010e-10
-0.131, -7.209e-10
-0.138, -7.413e-10
-0.145, -7.624e-10
-0.152, -7.848e-10
-0.159, -8.048e-10
-0.166, -8.227e-10
-0.173, -8.417e-10
-0.180, -8.608e-10
-0.187, -8.823e-10
-0.194, -9.037e-10
-0.201, -9.240e-10
-0.208, -9.464e-10
-0.215, -9.655e-10
-0.222, -9.901e-10
-0.229, -1.014e-9
-0.236, -1.038e-9
-0.243, -1.062e-9
-0.250, -1.081e-9
-0.257, -1.104e-9
-0.264, -1.125e-9
-0.271, -1.149e-9
-0.278, -1.172e-9
-0.285, -1.194e-9
-0.292, -1.218e-9
-0.299, -1.246e-9
-0.306, -1.275e-9
-0.313, -1.301e-9
-0.320, -1.324e-9
-0.327, -1.348e-9
-0.334, -1.378e-9
-0.341, -1.405e-9
-0.348, -1.433e-9
-0.355, -1.463e-9
-0.362, -1.498e-9
-0.369, -1.533e-9
-0.376, -1.564e-9
-0.383, -1.598e-9
-0.390, -1.634e-9
-0.397, -1.671e-9
-0.404, -1.710e-9
-0.411, -1.756e-9
-0.418, -1.797e-9
-0.425, -1.843e-9
-0.432, -1.892e-9
-0.439, -1.943e-9
-0.446, -1.998e-9
-0.453, -2.051e-9
-0.460, -2.109e-9
-0.467, -2.168e-9
-0.474, -2.230e-9
-0.481, -2.290e-9
-0.488, -2.356e-9
-0.495, -2.421e-9
-0.499, -2.458e-9