File: Supplementary Fig 4/Fig S4d Bulk CVs post incubation/CV_dark_incubation_C.txt
Nov. 20, 2024   13:25:53
Cyclic Voltammetry
File: +12 2319-1 fto cv_cells_light_bulk 50 mv s-1 (2).bin
Data Source:  Experiment
Instrument Model:  CHI920C
Ref. Electrode:
Header:
Note:

Init E (V) = -0.5
High E (V) = 0.5
Low E (V) = -0.5
Init P/N = P
Scan Rate (V/s) = 0.05
Segment = 2
Sample Interval (V) = 0.001
Quiet Time (sec) = 10
Sensitivity (A/V) = 1e-7

Results:

Channel 1:
Segment 1:
Ep = 0.090V
ip = 7.959e-9A
Ah = 1.491e-9C

Segment 2:
Ep = -0.062V
ip = -5.085e-9A
Ah = -9.741e-10C

Potential/V, Current/A

-0.500, -3.623e-10
-0.493, -2.830e-10
-0.486, -2.478e-10
-0.479, -2.279e-10
-0.472, -2.029e-10
-0.465, -1.824e-10
-0.458, -1.760e-10
-0.451, -1.602e-10
-0.444, -1.523e-10
-0.437, -1.424e-10
-0.430, -1.246e-10
-0.423, -1.096e-10
-0.416, -9.725e-11
-0.409, -8.428e-11
-0.402, -7.395e-11
-0.395, -5.923e-11
-0.388, -6.362e-11
-0.381, -3.964e-11
-0.374, -2.599e-11
-0.367, -2.365e-11
-0.360, -1.439e-11
-0.353, -5.225e-12
-0.346, 8.617e-12
-0.339, 1.798e-11
-0.332, 2.392e-11
-0.325, 3.338e-11
-0.318, 4.469e-11
-0.311, 5.014e-11
-0.304, 5.785e-11
-0.297, 7.052e-11
-0.290, 7.637e-11
-0.283, 8.495e-11
-0.276, 9.703e-11
-0.269, 1.076e-10
-0.262, 1.179e-10
-0.255, 1.271e-10
-0.248, 1.361e-10
-0.241, 1.485e-10
-0.234, 1.584e-10
-0.227, 1.699e-10
-0.220, 1.801e-10
-0.213, 1.914e-10
-0.206, 2.070e-10
-0.199, 2.222e-10
-0.192, 2.356e-10
-0.185, 2.487e-10
-0.178, 2.612e-10
-0.171, 2.738e-10
-0.164, 2.933e-10
-0.157, 3.090e-10
-0.150, 3.247e-10
-0.143, 3.445e-10
-0.136, 3.623e-10
-0.129, 3.711e-10
-0.122, 3.900e-10
-0.115, 4.039e-10
-0.108, 4.212e-10
-0.101, 4.312e-10
-0.094, 4.662e-10
-0.087, 4.902e-10
-0.080, 5.012e-10
-0.073, 5.278e-10
-0.066, 5.425e-10
-0.059, 5.589e-10
-0.052, 5.811e-10
-0.045, 8.903e-10
-0.038, 8.423e-10
-0.031, 8.386e-10
-0.024, 8.512e-10
-0.017, 8.674e-10
-0.010, 8.833e-10
-0.003, 9.070e-10
0.004, 9.314e-10
0.011, 9.536e-10
0.018, 9.805e-10
0.025, 1.006e-9
0.032, 1.029e-9
0.039, 1.070e-9
0.046, 1.102e-9
0.053, 1.150e-9
0.060, 1.217e-9
0.067, 1.273e-9
0.074, 1.424e-9
0.081, 2.471e-9
0.088, 8.499e-9
0.095, 5.036e-9
0.102, 2.268e-9
0.109, 1.482e-9
0.116, 1.365e-9
0.123, 1.366e-9
0.130, 1.385e-9
0.137, 1.401e-9
0.144, 1.411e-9
0.151, 1.427e-9
0.158, 1.468e-9
0.165, 1.482e-9
0.172, 1.496e-9
0.179, 1.583e-9
0.186, 1.704e-9
0.193, 1.739e-9
0.200, 1.773e-9
0.207, 1.782e-9
0.214, 1.820e-9
0.221, 1.846e-9
0.228, 1.859e-9
0.235, 1.851e-9
0.242, 1.845e-9
0.249, 1.858e-9
0.256, 1.865e-9
0.263, 1.886e-9
0.270, 1.886e-9
0.277, 1.907e-9
0.284, 1.970e-9
0.291, 1.983e-9
0.298, 2.022e-9
0.305, 2.003e-9
0.312, 2.035e-9
0.319, 2.055e-9
0.326, 2.113e-9
0.333, 2.127e-9
0.340, 2.127e-9
0.347, 2.132e-9
0.354, 2.157e-9
0.361, 2.181e-9
0.368, 2.201e-9
0.375, 2.214e-9
0.382, 2.224e-9
0.389, 2.234e-9
0.396, 2.265e-9
0.403, 2.291e-9
0.410, 2.312e-9
0.417, 2.368e-9
0.424, 2.399e-9
0.431, 2.411e-9
0.438, 2.431e-9
0.445, 2.454e-9
0.452, 2.477e-9
0.459, 2.504e-9
0.466, 2.543e-9
0.473, 2.587e-9
0.480, 2.597e-9
0.487, 2.610e-9
0.494, 2.635e-9
0.499, 2.579e-9
0.492, 2.391e-9
0.485, 2.426e-9
0.478, 2.353e-9
0.471, 2.243e-9
0.464, 2.155e-9
0.457, 2.055e-9
0.450, 1.980e-9
0.443, 1.919e-9
0.436, 1.836e-9
0.429, 1.761e-9
0.422, 1.699e-9
0.415, 1.629e-9
0.408, 1.581e-9
0.401, 1.529e-9
0.394, 1.470e-9
0.387, 1.416e-9
0.380, 1.354e-9
0.373, 1.311e-9
0.366, 1.250e-9
0.359, 1.202e-9
0.352, 1.149e-9
0.345, 1.109e-9
0.338, 1.068e-9
0.331, 1.016e-9
0.324, 9.712e-10
0.317, 9.270e-10
0.310, 8.809e-10
0.303, 8.331e-10
0.296, 7.855e-10
0.289, 7.442e-10
0.282, 6.996e-10
0.275, 6.575e-10
0.268, 6.178e-10
0.261, 5.797e-10
0.254, 5.362e-10
0.247, 4.949e-10
0.240, 4.467e-10
0.233, 4.051e-10
0.226, 3.681e-10
0.219, 3.274e-10
0.212, 2.837e-10
0.205, 2.446e-10
0.198, 2.034e-10
0.191, 1.643e-10
0.184, 1.258e-10
0.177, 8.690e-11
0.170, 4.625e-11
0.163, 5.498e-12
0.156, -3.759e-11
0.149, -7.863e-11
0.142, -1.161e-10
0.135, -1.538e-10
0.128, -1.906e-10
0.121, -2.275e-10
0.114, -2.693e-10
0.107, -3.080e-10
0.100, -3.433e-10
0.093, -3.765e-10
0.086, -4.149e-10
0.079, -4.515e-10
0.072, -4.922e-10
0.065, -5.316e-10
0.058, -5.642e-10
0.051, -5.955e-10
0.044, -6.304e-10
0.037, -6.648e-10
0.030, -7.006e-10
0.023, -7.398e-10
0.016, -7.851e-10
0.009, -8.249e-10
0.002, -8.768e-10
-0.005, -9.386e-10
-0.012, -1.060e-9
-0.019, -1.245e-9
-0.026, -1.340e-9
-0.033, -1.440e-9
-0.040, -1.453e-9
-0.047, -1.809e-9
-0.054, -2.519e-9
-0.061, -5.473e-9
-0.068, -2.799e-9
-0.075, -1.761e-9
-0.082, -1.202e-9
-0.089, -1.270e-9
-0.096, -1.238e-9
-0.103, -1.291e-9
-0.110, -1.267e-9
-0.117, -1.303e-9
-0.124, -1.310e-9
-0.131, -1.319e-9
-0.138, -1.456e-9
-0.145, -1.343e-9
-0.152, -1.366e-9
-0.159, -1.386e-9
-0.166, -1.402e-9
-0.173, -1.465e-9
-0.180, -1.441e-9
-0.187, -1.458e-9
-0.194, -1.485e-9
-0.201, -1.516e-9
-0.208, -1.541e-9
-0.215, -1.551e-9
-0.222, -1.562e-9
-0.229, -1.589e-9
-0.236, -1.613e-9
-0.243, -1.641e-9
-0.250, -1.661e-9
-0.257, -1.699e-9
-0.264, -1.722e-9
-0.271, -1.748e-9
-0.278, -1.773e-9
-0.285, -1.782e-9
-0.292, -1.801e-9
-0.299, -1.827e-9
-0.306, -1.847e-9
-0.313, -1.876e-9
-0.320, -1.907e-9
-0.327, -1.932e-9
-0.334, -1.959e-9
-0.341, -1.991e-9
-0.348, -2.020e-9
-0.355, -2.047e-9
-0.362, -2.070e-9
-0.369, -2.101e-9
-0.376, -2.129e-9
-0.383, -2.159e-9
-0.390, -2.197e-9
-0.397, -2.226e-9
-0.404, -2.267e-9
-0.411, -2.294e-9
-0.418, -2.319e-9
-0.425, -2.343e-9
-0.432, -2.371e-9
-0.439, -2.396e-9
-0.446, -2.453e-9
-0.453, -2.478e-9
-0.460, -2.504e-9
-0.467, -2.530e-9
-0.474, -2.558e-9
-0.481, -2.581e-9
-0.488, -2.612e-9
-0.495, -2.638e-9
-0.499, -2.653e-9