File: Supplementary Fig 4/Fig S4d Bulk CVs post incubation/CV_dark_incubation_A.txt
Nov. 20, 2024   13:24:22
Cyclic Voltammetry
File: +12 2319-1 fto cv_cells_light_bulk 50 mv s-1.bin
Data Source:  Experiment
Instrument Model:  CHI920C
Ref. Electrode:
Header:
Note:

Init E (V) = -0.5
High E (V) = 0.5
Low E (V) = -0.5
Init P/N = P
Scan Rate (V/s) = 0.05
Segment = 2
Sample Interval (V) = 0.001
Quiet Time (sec) = 10
Sensitivity (A/V) = 1e-7

Results:

Channel 1:
Segment 1:
Ep = -0.139V
ip = 4.953e-10A
Ah = 2.970e-10C

Segment 2:
Ep = -0.093V
ip = -1.022e-9A
Ah = -3.280e-10C

Potential/V, Current/A

-0.500, -4.238e-10
-0.493, -3.726e-10
-0.486, -3.411e-10
-0.479, -3.151e-10
-0.472, -2.858e-10
-0.465, -2.526e-10
-0.458, -2.149e-10
-0.451, -1.884e-10
-0.444, -1.304e-10
-0.437, -1.222e-10
-0.430, -9.130e-11
-0.423, -2.960e-11
-0.416, -5.810e-12
-0.409, 1.495e-11
-0.402, 3.309e-11
-0.395, 5.190e-11
-0.388, 6.058e-11
-0.381, 8.202e-11
-0.374, 1.164e-10
-0.367, 1.197e-10
-0.360, 1.411e-10
-0.353, 1.443e-10
-0.346, 1.635e-10
-0.339, 4.598e-10
-0.332, 3.585e-10
-0.325, 2.479e-10
-0.318, 2.401e-10
-0.311, 2.474e-10
-0.304, 2.666e-10
-0.297, 3.453e-10
-0.290, 3.006e-10
-0.283, 3.060e-10
-0.276, 3.174e-10
-0.269, 3.163e-10
-0.262, 3.264e-10
-0.255, 3.390e-10
-0.248, 3.530e-10
-0.241, 3.532e-10
-0.234, 3.632e-10
-0.227, 3.656e-10
-0.220, 3.980e-10
-0.213, 4.003e-10
-0.206, 4.087e-10
-0.199, 4.079e-10
-0.192, 3.981e-10
-0.185, 4.344e-10
-0.178, 4.463e-10
-0.171, 4.448e-10
-0.164, 4.943e-10
-0.157, 5.582e-10
-0.150, 5.653e-10
-0.143, 5.565e-10
-0.136, 5.622e-10
-0.129, 5.378e-10
-0.122, 5.441e-10
-0.115, 5.526e-10
-0.108, 5.713e-10
-0.101, 5.912e-10
-0.094, 6.132e-10
-0.087, 6.879e-10
-0.080, 6.493e-10
-0.073, 6.550e-10
-0.066, 6.673e-10
-0.059, 6.845e-10
-0.052, 6.867e-10
-0.045, 7.076e-10
-0.038, 7.333e-10
-0.031, 7.437e-10
-0.024, 7.711e-10
-0.017, 8.191e-10
-0.010, 8.314e-10
-0.003, 8.336e-10
0.004, 8.734e-10
0.011, 8.977e-10
0.018, 9.472e-10
0.025, 1.018e-9
0.032, 1.050e-9
0.039, 1.069e-9
0.046, 1.105e-9
0.053, 1.212e-9
0.060, 1.262e-9
0.067, 1.474e-9
0.074, 2.651e-9
0.081, 1.452e-9
0.088, 1.339e-9
0.095, 1.339e-9
0.102, 1.241e-9
0.109, 1.246e-9
0.116, 1.270e-9
0.123, 1.264e-9
0.130, 1.315e-9
0.137, 9.008e-10
0.144, 9.681e-10
0.151, 9.771e-10
0.158, 1.141e-9
0.165, 1.140e-9
0.172, 1.264e-9
0.179, 1.271e-9
0.186, 1.307e-9
0.193, 1.326e-9
0.200, 1.366e-9
0.207, 1.465e-9
0.214, 1.376e-9
0.221, 1.396e-9
0.228, 1.413e-9
0.235, 1.447e-9
0.242, 1.473e-9
0.249, 1.475e-9
0.256, 1.490e-9
0.263, 1.531e-9
0.270, 1.489e-9
0.277, 1.507e-9
0.284, 1.554e-9
0.291, 1.594e-9
0.298, 1.562e-9
0.305, 1.618e-9
0.312, 1.608e-9
0.319, 1.593e-9
0.326, 1.642e-9
0.333, 1.674e-9
0.340, 1.656e-9
0.347, 1.678e-9
0.354, 1.717e-9
0.361, 1.695e-9
0.368, 1.763e-9
0.375, 1.724e-9
0.382, 1.709e-9
0.389, 1.712e-9
0.396, 1.709e-9
0.403, 1.712e-9
0.410, 1.727e-9
0.417, 1.710e-9
0.424, 1.729e-9
0.431, 1.733e-9
0.438, 1.749e-9
0.445, 1.938e-9
0.452, 1.939e-9
0.459, 1.909e-9
0.466, 1.907e-9
0.473, 1.930e-9
0.480, 1.917e-9
0.487, 1.867e-9
0.494, 1.845e-9
0.499, 1.852e-9
0.492, 1.667e-9
0.485, 1.520e-9
0.478, 1.410e-9
0.471, 1.340e-9
0.464, 1.227e-9
0.457, 1.151e-9
0.450, 1.090e-9
0.443, 1.042e-9
0.436, 9.805e-10
0.429, 9.621e-10
0.422, 9.172e-10
0.415, 8.560e-10
0.408, 8.084e-10
0.401, 9.180e-10
0.394, 7.335e-10
0.387, 7.752e-10
0.380, 6.788e-10
0.373, 6.267e-10
0.366, 5.964e-10
0.359, 5.696e-10
0.352, 5.311e-10
0.345, 4.880e-10
0.338, 4.889e-10
0.331, 4.651e-10
0.324, 4.071e-10
0.317, 3.791e-10
0.310, 3.513e-10
0.303, 3.182e-10
0.296, 2.882e-10
0.289, 1.985e-10
0.282, 1.989e-10
0.275, 1.739e-10
0.268, 1.569e-10
0.261, 1.348e-10
0.254, 1.199e-10
0.247, 9.440e-11
0.240, 7.871e-11
0.233, 8.378e-11
0.226, 4.712e-11
0.219, 1.993e-11
0.212, 4.913e-12
0.205, -2.287e-11
0.198, -4.860e-11
0.191, -7.580e-11
0.184, -9.052e-11
0.177, -1.090e-10
0.170, -1.289e-10
0.163, -1.425e-10
0.156, -1.603e-10
0.149, -1.846e-10
0.142, -2.100e-10
0.135, -2.313e-10
0.128, -2.496e-10
0.121, -2.679e-10
0.114, -2.946e-10
0.107, -3.047e-10
0.100, -3.308e-10
0.093, -3.510e-10
0.086, -3.468e-10
0.079, -3.631e-10
0.072, -3.856e-10
0.065, -4.080e-10
0.058, -4.253e-10
0.051, -4.365e-10
0.044, -4.571e-10
0.037, -4.729e-10
0.030, -4.949e-10
0.023, -5.168e-10
0.016, -5.384e-10
0.009, -5.561e-10
0.002, -5.730e-10
-0.005, -5.688e-10
-0.012, -5.970e-10
-0.019, -6.356e-10
-0.026, -6.784e-10
-0.033, -7.102e-10
-0.040, -7.685e-10
-0.047, -8.408e-10
-0.054, -9.109e-10
-0.061, -9.167e-10
-0.068, -7.204e-10
-0.075, -7.184e-10
-0.082, -7.686e-10
-0.089, -8.192e-10
-0.096, -8.172e-10
-0.103, -8.250e-10
-0.110, -8.452e-10
-0.117, -8.178e-10
-0.124, -8.006e-10
-0.131, -8.215e-10
-0.138, -9.244e-10
-0.145, -9.468e-10
-0.152, -9.074e-10
-0.159, -9.304e-10
-0.166, -9.638e-10
-0.173, -9.693e-10
-0.180, -9.486e-10
-0.187, -9.574e-10
-0.194, -9.817e-10
-0.201, -1.010e-9
-0.208, -1.007e-9
-0.215, -1.037e-9
-0.222, -1.056e-9
-0.229, -1.095e-9
-0.236, -1.081e-9
-0.243, -1.079e-9
-0.250, -1.154e-9
-0.257, -1.127e-9
-0.264, -1.130e-9
-0.271, -1.130e-9
-0.278, -1.130e-9
-0.285, -1.135e-9
-0.292, -1.141e-9
-0.299, -1.145e-9
-0.306, -1.150e-9
-0.313, -1.152e-9
-0.320, -1.159e-9
-0.327, -1.161e-9
-0.334, -1.167e-9
-0.341, -1.173e-9
-0.348, -1.176e-9
-0.355, -1.183e-9
-0.362, -1.191e-9
-0.369, -1.199e-9
-0.376, -1.204e-9
-0.383, -1.215e-9
-0.390, -1.225e-9
-0.397, -1.232e-9
-0.404, -1.261e-9
-0.411, -1.266e-9
-0.418, -1.277e-9
-0.425, -1.284e-9
-0.432, -1.294e-9
-0.439, -1.300e-9
-0.446, -1.308e-9
-0.453, -1.318e-9
-0.460, -1.326e-9
-0.467, -1.345e-9
-0.474, -1.353e-9
-0.481, -1.371e-9
-0.488, -1.382e-9
-0.495, -1.398e-9
-0.499, -1.409e-9