File: Supplementary Fig 4/Fig S4d Bulk CVs post incubation/CV_light_incubation_A.csv
Sept. 25, 2024   13:19:09
Cyclic Voltammetry
File: c:\users\secm\desktop\data\lmxlm2\+12 2319-1\25-09-2024\+12 2319-1_fto_light_bulk_cv.csv
Data Source:  Experiment
Instrument Model:  CHI920C
Ref. Electrode:
Header:
Note:

Init E (V) = -0.5
High E (V) = 0.5
Low E (V) = -0.5
Init P/N = P
Scan Rate (V/s) = 0.01
Segment = 2
Sample Interval (V) = 0.001
Quiet Time (sec) = 10
Sensitivity (A/V) = 1e-8

Results:

Channel 1:
Segment 1:
Ep = 0.106V
ip = 7.309e-11A
Ah = 3.075e-10C

Segment 2:

Potential/V, Current/A

-0.500, -1.037e-9
-0.493, -9.788e-10
-0.486, -9.281e-10
-0.479, -8.868e-10
-0.472, -8.515e-10
-0.465, -8.197e-10
-0.458, -7.945e-10
-0.451, -7.677e-10
-0.444, -7.432e-10
-0.437, -7.200e-10
-0.430, -6.980e-10
-0.423, -6.744e-10
-0.416, -6.527e-10
-0.409, -6.291e-10
-0.402, -6.087e-10
-0.395, -5.875e-10
-0.388, -5.597e-10
-0.381, -5.233e-10
-0.374, -4.838e-10
-0.367, -4.259e-10
-0.360, -3.909e-10
-0.353, -3.653e-10
-0.346, -3.410e-10
-0.339, -3.181e-10
-0.332, -3.005e-10
-0.325, -2.837e-10
-0.318, -2.671e-10
-0.311, -2.525e-10
-0.304, -2.386e-10
-0.297, -2.275e-10
-0.290, -2.160e-10
-0.283, -2.045e-10
-0.276, -1.937e-10
-0.269, -1.837e-10
-0.262, -1.745e-10
-0.255, -1.842e-10
-0.248, -1.868e-10
-0.241, -1.763e-10
-0.234, -1.828e-10
-0.227, -1.739e-10
-0.220, -1.627e-10
-0.213, -1.506e-10
-0.206, -1.369e-10
-0.199, -1.276e-10
-0.192, -1.266e-10
-0.185, -1.159e-10
-0.178, -1.063e-10
-0.171, -9.587e-11
-0.164, -8.596e-11
-0.157, -7.674e-11
-0.150, -6.656e-11
-0.143, -5.670e-11
-0.136, -4.692e-11
-0.129, -3.721e-11
-0.122, -2.783e-11
-0.115, -1.769e-11
-0.108, -8.110e-12
-0.101, 2.371e-12
-0.094, 1.189e-11
-0.087, 2.086e-11
-0.080, 3.063e-11
-0.073, 3.942e-11
-0.066, 4.979e-11
-0.059, 5.912e-11
-0.052, 6.831e-11
-0.045, 7.792e-11
-0.038, 8.724e-11
-0.031, 9.712e-11
-0.024, 1.059e-10
-0.017, 1.154e-10
-0.010, 1.255e-10
-0.003, 1.353e-10
0.004, 1.455e-10
0.011, 1.562e-10
0.018, 1.668e-10
0.025, 1.778e-10
0.032, 1.889e-10
0.039, 2.057e-10
0.046, 2.182e-10
0.053, 2.311e-10
0.060, 2.453e-10
0.067, 2.596e-10
0.074, 2.758e-10
0.081, 2.960e-10
0.088, 3.159e-10
0.095, 3.354e-10
0.102, 3.504e-10
0.109, 3.501e-10
0.116, 3.105e-10
0.123, 2.817e-10
0.130, 2.769e-10
0.137, 2.779e-10
0.144, 2.806e-10
0.151, 2.846e-10
0.158, 2.891e-10
0.165, 2.932e-10
0.172, 2.957e-10
0.179, 3.015e-10
0.186, 3.059e-10
0.193, 3.092e-10
0.200, 3.136e-10
0.207, 3.175e-10
0.214, 3.225e-10
0.221, 3.270e-10
0.228, 3.311e-10
0.235, 3.360e-10
0.242, 3.405e-10
0.249, 3.449e-10
0.256, 3.494e-10
0.263, 3.534e-10
0.270, 3.586e-10
0.277, 3.622e-10
0.284, 3.665e-10
0.291, 3.716e-10
0.298, 3.767e-10
0.305, 3.807e-10
0.312, 3.849e-10
0.319, 3.896e-10
0.326, 3.941e-10
0.333, 3.986e-10
0.340, 4.029e-10
0.347, 4.069e-10
0.354, 4.125e-10
0.361, 4.176e-10
0.368, 4.220e-10
0.375, 4.262e-10
0.382, 4.305e-10
0.389, 4.346e-10
0.396, 4.401e-10
0.403, 4.440e-10
0.410, 4.481e-10
0.417, 4.536e-10
0.424, 4.576e-10
0.431, 4.626e-10
0.438, 4.685e-10
0.445, 4.727e-10
0.452, 4.780e-10
0.459, 4.839e-10
0.466, 4.919e-10
0.473, 4.964e-10
0.480, 5.004e-10
0.487, 5.050e-10
0.494, 5.100e-10
0.499, 4.951e-10
0.492, 4.315e-10
0.485, 3.850e-10
0.478, 3.443e-10
0.471, 3.069e-10
0.464, 2.740e-10
0.457, 2.427e-10
0.450, 2.137e-10
0.443, 1.865e-10
0.436, 1.604e-10
0.429, 1.362e-10
0.422, 1.134e-10
0.415, 9.205e-11
0.408, 7.225e-11
0.401, 5.199e-11
0.394, 3.360e-11
0.387, 1.641e-11
0.380, 7.643e-13
0.373, -1.457e-11
0.366, -2.972e-11
0.359, -4.284e-11
0.352, -5.637e-11
0.345, -6.816e-11
0.338, -7.998e-11
0.331, -8.939e-11
0.324, -1.002e-10
0.317, -1.099e-10
0.310, -1.194e-10
0.303, -1.288e-10
0.296, -1.365e-10
0.289, -1.441e-10
0.282, -1.523e-10
0.275, -1.590e-10
0.268, -1.658e-10
0.261, -1.720e-10
0.254, -1.783e-10
0.247, -1.838e-10
0.240, -1.896e-10
0.233, -1.953e-10
0.226, -2.003e-10
0.219, -2.051e-10
0.212, -2.106e-10
0.205, -2.150e-10
0.198, -2.195e-10
0.191, -2.250e-10
0.184, -2.296e-10
0.177, -2.341e-10
0.170, -2.385e-10
0.163, -2.426e-10
0.156, -2.468e-10
0.149, -2.510e-10
0.142, -2.550e-10
0.135, -2.593e-10
0.128, -2.632e-10
0.121, -2.669e-10
0.114, -2.712e-10
0.107, -2.758e-10
0.100, -2.795e-10
0.093, -2.836e-10
0.086, -2.873e-10
0.079, -2.910e-10
0.072, -2.951e-10
0.065, -2.993e-10
0.058, -3.031e-10
0.051, -3.075e-10
0.044, -3.117e-10
0.037, -3.159e-10
0.030, -3.200e-10
0.023, -3.248e-10
0.016, -3.291e-10
0.009, -3.338e-10
0.002, -3.384e-10
-0.005, -3.439e-10
-0.012, -3.489e-10
-0.019, -3.546e-10
-0.026, -3.599e-10
-0.033, -3.647e-10
-0.040, -3.693e-10
-0.047, -3.738e-10
-0.054, -3.775e-10
-0.061, -3.824e-10
-0.068, -3.875e-10
-0.075, -3.933e-10
-0.082, -3.974e-10
-0.089, -4.019e-10
-0.096, -4.062e-10
-0.103, -4.125e-10
-0.110, -4.251e-10
-0.117, -4.294e-10
-0.124, -4.339e-10
-0.131, -4.386e-10
-0.138, -4.429e-10
-0.145, -4.477e-10
-0.152, -4.543e-10
-0.159, -4.588e-10
-0.166, -4.653e-10
-0.173, -4.702e-10
-0.180, -4.750e-10
-0.187, -4.807e-10
-0.194, -4.860e-10
-0.201, -4.919e-10
-0.208, -4.983e-10
-0.215, -5.039e-10
-0.222, -5.104e-10
-0.229, -5.172e-10
-0.236, -5.236e-10
-0.243, -5.303e-10
-0.250, -5.359e-10
-0.257, -5.460e-10
-0.264, -5.535e-10
-0.271, -5.623e-10
-0.278, -5.706e-10
-0.285, -5.779e-10
-0.292, -5.858e-10
-0.299, -5.942e-10
-0.306, -6.018e-10
-0.313, -6.100e-10
-0.320, -6.191e-10
-0.327, -6.277e-10
-0.334, -6.358e-10
-0.341, -6.446e-10
-0.348, -6.528e-10
-0.355, -6.614e-10
-0.362, -6.693e-10
-0.369, -6.775e-10
-0.376, -6.858e-10
-0.383, -6.990e-10
-0.390, -7.081e-10
-0.397, -7.252e-10
-0.404, -7.391e-10
-0.411, -7.491e-10
-0.418, -7.594e-10
-0.425, -7.787e-10
-0.432, -7.888e-10
-0.439, -7.979e-10
-0.446, -8.068e-10
-0.453, -8.150e-10
-0.460, -8.247e-10
-0.467, -8.349e-10
-0.474, -8.437e-10
-0.481, -8.503e-10
-0.488, -8.593e-10
-0.495, -8.635e-10
-0.499, -8.612e-10