File: Supplementary Fig 4/Fig S4d Bulk CVs post incubation/CV_light_incubation_B.txt
Nov. 18, 2024   15:03:26
Cyclic Voltammetry
File: +12 2319-1 fto cv_cells_light_bulk.bin
Data Source:  Experiment
Instrument Model:  CHI920C
Ref. Electrode:
Header:
Note:

Init E (V) = -0.5
High E (V) = 0.5
Low E (V) = -0.5
Init P/N = P
Scan Rate (V/s) = 0.05
Segment = 2
Sample Interval (V) = 0.001
Quiet Time (sec) = 10
Sensitivity (A/V) = 1e-7

Results:

Channel 1:
Segment 1:
Ep = 0.112V
ip = 5.191e-10A
Ah = 3.717e-10C

Segment 2:

Potential/V, Current/A

-0.500, -7.537e-10
-0.493, -6.931e-10
-0.486, -6.519e-10
-0.479, -6.129e-10
-0.472, -5.772e-10
-0.465, -5.430e-10
-0.458, -5.051e-10
-0.451, -4.697e-10
-0.444, -4.389e-10
-0.437, -4.095e-10
-0.430, -3.805e-10
-0.423, -3.532e-10
-0.416, -3.304e-10
-0.409, -3.069e-10
-0.402, -2.811e-10
-0.395, -2.546e-10
-0.388, -2.336e-10
-0.381, -2.131e-10
-0.374, -1.946e-10
-0.367, -1.782e-10
-0.360, -1.622e-10
-0.353, -1.441e-10
-0.346, -1.281e-10
-0.339, -1.148e-10
-0.332, -1.023e-10
-0.325, -9.013e-11
-0.318, -7.892e-11
-0.311, -6.703e-11
-0.304, -5.543e-11
-0.297, -4.324e-11
-0.290, -3.232e-11
-0.283, -2.462e-11
-0.276, -9.807e-12
-0.269, -8.383e-13
-0.262, 8.130e-12
-0.255, 1.681e-11
-0.248, 2.538e-11
-0.241, 3.260e-11
-0.234, 3.991e-11
-0.227, 4.644e-11
-0.220, 5.239e-11
-0.213, 5.911e-11
-0.206, 6.574e-11
-0.199, 7.101e-11
-0.192, 7.685e-11
-0.185, 8.309e-11
-0.178, 8.826e-11
-0.171, 9.118e-11
-0.164, 9.840e-11
-0.157, 1.025e-10
-0.150, 1.069e-10
-0.143, 1.101e-10
-0.136, 1.139e-10
-0.129, 1.178e-10
-0.122, 1.186e-10
-0.115, 1.226e-10
-0.108, 1.247e-10
-0.101, 1.274e-10
-0.094, 1.297e-10
-0.087, 1.328e-10
-0.080, 1.336e-10
-0.073, 1.366e-10
-0.066, 1.394e-10
-0.059, 1.407e-10
-0.052, 1.441e-10
-0.045, 1.473e-10
-0.038, 1.487e-10
-0.031, 1.518e-10
-0.024, 1.554e-10
-0.017, 1.606e-10
-0.010, 1.634e-10
-0.003, 1.675e-10
0.004, 1.749e-10
0.011, 1.851e-10
0.018, 1.972e-10
0.025, 2.091e-10
0.032, 2.259e-10
0.039, 2.434e-10
0.046, 2.615e-10
0.053, 2.828e-10
0.060, 3.069e-10
0.067, 3.321e-10
0.074, 3.595e-10
0.081, 3.908e-10
0.088, 4.285e-10
0.095, 5.094e-10
0.102, 6.126e-10
0.109, 6.943e-10
0.116, 6.971e-10
0.123, 6.100e-10
0.130, 5.275e-10
0.137, 4.798e-10
0.144, 4.530e-10
0.151, 4.382e-10
0.158, 4.332e-10
0.165, 4.268e-10
0.172, 4.236e-10
0.179, 4.139e-10
0.186, 4.046e-10
0.193, 3.895e-10
0.200, 3.802e-10
0.207, 3.680e-10
0.214, 3.578e-10
0.221, 3.491e-10
0.228, 3.410e-10
0.235, 3.378e-10
0.242, 3.339e-10
0.249, 3.307e-10
0.256, 3.286e-10
0.263, 3.277e-10
0.270, 3.258e-10
0.277, 3.250e-10
0.284, 3.265e-10
0.291, 3.244e-10
0.298, 3.260e-10
0.305, 3.298e-10
0.312, 3.280e-10
0.319, 3.441e-10
0.326, 3.343e-10
0.333, 3.296e-10
0.340, 3.340e-10
0.347, 3.317e-10
0.354, 3.366e-10
0.361, 3.386e-10
0.368, 3.408e-10
0.375, 3.434e-10
0.382, 3.433e-10
0.389, 3.469e-10
0.396, 3.503e-10
0.403, 3.536e-10
0.410, 3.538e-10
0.417, 3.558e-10
0.424, 3.585e-10
0.431, 3.605e-10
0.438, 3.609e-10
0.445, 3.625e-10
0.452, 3.656e-10
0.459, 3.664e-10
0.466, 3.695e-10
0.473, 3.710e-10
0.480, 3.759e-10
0.487, 3.775e-10
0.494, 3.802e-10
0.499, 3.606e-10
0.492, 3.145e-10
0.485, 2.886e-10
0.478, 2.682e-10
0.471, 2.516e-10
0.464, 2.386e-10
0.457, 2.236e-10
0.450, 2.127e-10
0.443, 2.015e-10
0.436, 1.923e-10
0.429, 1.838e-10
0.422, 1.730e-10
0.415, 1.661e-10
0.408, 1.588e-10
0.401, 1.505e-10
0.394, 1.420e-10
0.387, 1.355e-10
0.380, 1.293e-10
0.373, 1.230e-10
0.366, 1.147e-10
0.359, 1.075e-10
0.352, 1.009e-10
0.345, 9.391e-11
0.338, 8.680e-11
0.331, 7.997e-11
0.324, 7.110e-11
0.317, 6.555e-11
0.310, 5.882e-11
0.303, 5.336e-11
0.296, 4.781e-11
0.289, 4.215e-11
0.282, 3.533e-11
0.275, 3.094e-11
0.268, 2.519e-11
0.261, 1.885e-11
0.254, 1.310e-11
0.247, 7.448e-12
0.240, 1.111e-12
0.233, -2.496e-12
0.226, -8.637e-12
0.219, -1.371e-11
0.212, -1.887e-11
0.205, -2.492e-11
0.198, -2.960e-11
0.191, -3.535e-11
0.184, -3.973e-11
0.177, -4.393e-11
0.170, -4.812e-11
0.163, -5.377e-11
0.156, -5.660e-11
0.149, -6.176e-11
0.142, -6.693e-11
0.135, -7.025e-11
0.128, -7.453e-11
0.121, -7.902e-11
0.114, -8.311e-11
0.107, -8.867e-11
0.100, -9.296e-11
0.093, -9.618e-11
0.086, -1.029e-10
0.079, -1.068e-10
0.072, -1.124e-10
0.065, -1.191e-10
0.058, -1.250e-10
0.051, -1.302e-10
0.044, -1.357e-10
0.037, -1.423e-10
0.030, -1.493e-10
0.023, -1.589e-10
0.016, -1.638e-10
0.009, -1.697e-10
0.002, -1.767e-10
-0.005, -1.835e-10
-0.012, -1.901e-10
-0.019, -1.961e-10
-0.026, -2.022e-10
-0.033, -2.068e-10
-0.040, -2.127e-10
-0.047, -2.190e-10
-0.054, -2.260e-10
-0.061, -2.497e-10
-0.068, -2.600e-10
-0.075, -2.648e-10
-0.082, -2.511e-10
-0.089, -2.432e-10
-0.096, -2.395e-10
-0.103, -2.486e-10
-0.110, -2.489e-10
-0.117, -2.514e-10
-0.124, -2.579e-10
-0.131, -2.704e-10
-0.138, -2.656e-10
-0.145, -2.850e-10
-0.152, -2.733e-10
-0.159, -2.777e-10
-0.166, -2.882e-10
-0.173, -2.871e-10
-0.180, -2.927e-10
-0.187, -2.968e-10
-0.194, -3.059e-10
-0.201, -3.077e-10
-0.208, -3.128e-10
-0.215, -3.156e-10
-0.222, -3.226e-10
-0.229, -3.275e-10
-0.236, -3.300e-10
-0.243, -3.338e-10
-0.250, -3.405e-10
-0.257, -3.451e-10
-0.264, -3.544e-10
-0.271, -3.561e-10
-0.278, -3.613e-10
-0.285, -3.713e-10
-0.292, -3.781e-10
-0.299, -3.802e-10
-0.306, -3.889e-10
-0.313, -3.959e-10
-0.320, -4.029e-10
-0.327, -4.146e-10
-0.334, -4.201e-10
-0.341, -4.287e-10
-0.348, -4.373e-10
-0.355, -4.472e-10
-0.362, -4.563e-10
-0.369, -4.661e-10
-0.376, -4.801e-10
-0.383, -4.924e-10
-0.390, -5.054e-10
-0.397, -5.217e-10
-0.404, -5.380e-10
-0.411, -5.561e-10
-0.418, -5.707e-10
-0.425, -5.853e-10
-0.432, -6.031e-10
-0.439, -6.225e-10
-0.446, -6.418e-10
-0.453, -6.623e-10
-0.460, -6.858e-10
-0.467, -7.078e-10
-0.474, -7.290e-10
-0.481, -7.547e-10
-0.488, -7.807e-10
-0.495, -8.042e-10
-0.499, -8.147e-10